Wavelength in angstrom in first column, Flux in erg/cm^2/s/A in second column
      1711.29  3.75330e-14
      1712.67  1.73680e-14
      1714.04  2.12910e-14
      1715.41  1.35110e-14
      1716.78  1.59290e-14
      1718.15  8.16780e-15
      1719.52 -9.17030e-17
      1720.89  6.33530e-15
      1722.26  1.06150e-14
      1723.63  3.72100e-15
      1725.01 -3.41440e-15
      1726.38  6.62960e-15
      1727.75  1.31430e-14
      1729.12  2.11540e-14
      1730.49  1.13530e-14
      1731.86  1.20040e-14
      1733.23  1.32610e-14
      1734.60 -4.91510e-15
      1735.98 -2.26990e-15
      1737.35 -1.99440e-15
      1738.72  1.59770e-14
      1740.09 -3.12730e-15
      1741.46  7.90930e-15
      1742.83  2.27550e-14
      1744.20  1.07170e-14
      1745.57  1.07210e-14
      1746.95  2.18250e-14
      1748.32  1.75290e-14
      1749.69  9.59570e-15
      1751.06  2.24850e-14
      1752.43  1.69870e-14
      1753.80  3.32490e-14
      1755.17  2.53480e-14
      1756.55  2.05680e-14
      1757.92  2.13430e-14
      1759.29  2.83860e-14
      1760.66  2.70790e-14
      1762.03  3.11120e-14
      1763.40  2.44060e-14
      1764.77  1.60130e-14
      1766.15  2.17030e-14
      1767.52  1.96070e-14
      1768.89  2.81440e-14
      1770.26  2.44510e-14
      1771.63  2.94460e-14
      1773.00  1.89380e-14
      1774.38  2.72650e-14
      1775.75  1.02990e-14
      1777.12  1.83010e-14
      1778.49  1.95240e-14
      1779.86  3.16520e-14
      1781.23  3.13450e-14
      1782.60  2.82690e-14
      1783.98  2.45920e-14
      1785.35  2.25760e-14
      1786.72  1.81350e-14
      1788.09  1.40230e-14
      1789.46  2.24930e-14
      1790.84  2.03060e-14
      1792.21  1.87010e-14
      1793.58  1.93850e-14
      1794.95  2.01130e-14
      1796.32  2.37560e-14
      1797.69  2.62330e-14
      1799.07  2.74180e-14
      1800.44  2.84300e-14
      1801.81  2.94120e-14
      1803.18  2.59880e-14
      1804.55  2.30030e-14
      1805.93  3.06450e-14
      1807.30  2.83950e-14
      1808.67  3.50430e-14
      1810.04  3.00110e-14
      1811.41  2.19450e-14
      1812.78  2.53890e-14
      1814.16  2.14580e-14
      1815.53  3.66020e-14
      1816.90  3.26880e-14
      1818.27  2.06420e-14
      1819.64  2.13530e-14
      1821.02  2.32780e-14
      1822.39  2.39810e-14
      1823.76  3.20480e-14
      1825.13  2.77290e-14
      1826.50  2.29150e-14
      1827.88  2.64020e-14
      1829.25  2.86120e-14
      1830.62  2.89160e-14
      1831.99  2.47230e-14
      1833.37  3.09910e-14
      1834.74  2.93580e-14
      1836.11  2.31470e-14
      1837.48  2.82210e-14
      1838.85  3.04570e-14
      1840.23  3.47660e-14
      1841.60  2.63810e-14
      1842.97  2.06620e-14
      1844.34  2.40960e-14
      1845.71  2.63010e-14
      1847.09  1.85850e-14
      1848.46  2.89840e-14
      1849.83  2.74530e-14
      1851.20  8.80930e-15
      1852.58  3.15430e-14
      1853.95  3.39100e-14
      1855.32  3.01550e-14
      1856.69  2.98540e-14
      1858.07  2.81690e-14
      1859.44  2.68970e-14
      1860.81  2.50430e-14
      1862.18  2.54290e-14
      1863.55  3.39180e-14
      1864.93  2.84220e-14
      1866.30  2.99580e-14
      1867.67  3.33210e-14
      1869.04  3.32720e-14
      1870.42  3.12010e-14
      1871.79  3.16900e-14
      1873.16  3.59530e-14
      1874.53  3.11550e-14
      1875.91  3.88340e-14
      1877.28  2.59950e-14
      1878.65  2.99420e-14
      1880.02  3.05920e-14
      1881.40  2.90240e-14
      1882.77  4.99850e-14
      1884.14  3.60660e-14
      1885.51  3.42660e-14
      1886.89  2.48900e-14
      1888.26  3.66360e-14
      1889.63  3.62660e-14
      1891.00  3.55990e-14
      1892.38  3.68630e-14
      1893.75  4.12360e-14
      1895.12  3.64780e-14
      1896.49  3.12540e-14
      1897.87  3.19300e-14
      1899.24  3.36330e-14
      1900.61  3.99090e-14
      1901.98  4.45020e-14
      1903.36  3.64680e-14
      1904.73  4.60600e-14
      1906.10  4.05080e-14
      1907.47  3.81240e-14
      1908.85  3.70720e-14
      1910.22  4.25010e-14
      1911.59  3.91110e-14
      1912.97  4.59430e-14
      1914.34  4.87160e-14
      1915.71  4.63500e-14
      1917.08  3.90790e-14
      1918.46  4.56650e-14
      1919.83  3.87080e-14
      1921.20  4.35430e-14
      1922.57  4.32080e-14
      1923.95  4.52880e-14
      1925.32  4.19730e-14
      1926.69  4.49970e-14
      1928.07  4.21990e-14
      1929.44  3.92990e-14
      1930.81  3.68080e-14
      1932.18  3.96660e-14
      1933.56  2.86540e-14
      1934.93  2.87520e-14
      1936.30  3.85220e-14
      1937.68  3.36420e-14
      1939.05  4.12880e-14
      1940.42  3.98740e-14
      1941.79  5.03090e-14
      1943.17  5.08370e-14
      1944.54  4.76970e-14
      1945.91  5.04880e-14
      1947.29  4.48590e-14
      1948.66  5.22760e-14
      1950.03  5.26700e-14
      1951.40  4.67810e-14
      1952.78  4.45410e-14
      1954.15  4.85560e-14
      1955.52  5.04090e-14
      1956.90  4.77360e-14
      1958.27  4.80930e-14
      1959.64  5.22480e-14
      1961.02  4.76600e-14
      1962.39  4.40570e-14
      1963.76  4.84890e-14
      1965.13  5.32890e-14
      1966.51  4.87720e-14
      1967.88  5.25150e-14
      1969.25  6.05400e-14
      1970.63  4.70780e-14
      1972.00  5.26210e-14
      1973.37  5.44130e-14
      1974.75  5.75960e-14
      1976.12  5.16350e-14
      1977.49  4.81710e-14
      1978.87  5.69590e-14
      1980.24  5.27270e-14
      1981.61  5.21810e-14
      1982.98  5.12990e-14
      1984.36  5.42080e-14
      1985.73  5.20420e-14
      1987.10  5.24210e-14
      1988.48  4.97730e-14
      1989.85  4.50860e-14
      1991.22  5.11960e-14
      1992.60  4.97680e-14
      1993.97  5.28600e-14
      1995.34  5.33700e-14
      1996.72  5.45450e-14
      1998.09  5.70170e-14
      1999.46  5.30490e-14
      2000.84  5.40260e-14
      2002.21  5.73320e-14
      2003.58  6.33970e-14
      2004.96  5.97540e-14
      2006.33  5.74130e-14
      2007.70  6.09220e-14
      2009.08  6.26490e-14
      2010.45  5.80070e-14
      2011.82  6.08390e-14
      2013.20  6.64480e-14
      2014.57  5.93220e-14
      2015.94  5.99070e-14
      2017.32  6.49510e-14
      2018.69  6.70080e-14
      2020.06  6.62460e-14
      2021.44  6.47030e-14
      2022.81  6.78760e-14
      2024.18  6.32290e-14
      2025.56  5.66770e-14
      2026.93  5.83990e-14
      2028.30  6.88780e-14
      2029.68  6.55460e-14
      2031.05  6.71640e-14
      2032.42  6.85740e-14
      2033.80  6.50660e-14
      2035.17  6.31020e-14
      2036.54  7.28470e-14
      2037.92  7.35260e-14
      2039.29  6.51390e-14
      2040.66  6.67780e-14
      2042.04  7.43560e-14
      2043.41  7.28040e-14
      2044.78  7.32450e-14
      2046.16  7.27840e-14
      2047.53  7.64630e-14
      2048.90  7.34720e-14
      2050.28  7.94550e-14
      2051.65  8.25700e-14
      2053.02  7.96040e-14
      2054.40  7.70250e-14
      2055.77  8.24820e-14
      2057.14  7.90940e-14
      2058.52  7.87470e-14
      2059.89  7.90200e-14
      2061.26  8.28410e-14
      2062.64  7.74190e-14
      2064.01  8.02150e-14
      2065.39  8.31780e-14
      2066.76  8.49400e-14
      2068.13  7.90400e-14
      2069.51  8.80770e-14
      2070.88  8.73860e-14
      2072.25  9.24040e-14
      2073.63  9.12140e-14
      2075.00  9.80350e-14
      2076.37  9.79870e-14
      2077.75  9.76810e-14
      2079.12  9.83570e-14
      2080.49  9.88980e-14
      2081.87  9.34160e-14
      2083.24  9.17780e-14
      2084.62  9.72700e-14
      2085.99  1.00630e-13
      2087.36  1.02920e-13
      2088.74  1.12210e-13
      2090.11  1.11370e-13
      2091.48  1.14250e-13
      2092.86  1.24140e-13
      2094.23  1.30340e-13
      2095.60  1.31510e-13
      2096.98  1.40270e-13
      2098.35  1.40950e-13
      2099.73  1.40940e-13
      2101.10  1.49440e-13
      2102.47  1.65630e-13
      2103.85  1.56750e-13
      2105.22  1.75090e-13
      2106.59  1.86330e-13
      2107.97  1.75750e-13
      2109.34  1.57050e-13
      2110.72  1.59010e-13
      2112.09  1.82350e-13
      2113.46  1.80660e-13
      2114.84  1.76450e-13
      2116.21  1.98920e-13
      2117.58  2.25490e-13
      2118.96  2.24910e-13
      2120.33  2.41830e-13
      2121.70  2.23600e-13
      2123.08  1.82570e-13
      2124.45  1.40030e-13
      2125.83  1.49250e-13
      2127.20  1.87970e-13
      2128.57  1.98140e-13
      2129.95  1.91360e-13
      2131.32  1.66830e-13
      2132.69  1.73730e-13
      2134.07  1.71400e-13
      2135.44  1.65470e-13
      2136.82  1.84690e-13
      2138.19  1.97300e-13
      2139.56  1.85980e-13
      2140.94  2.22350e-13
      2142.31  2.60280e-13
      2143.69  2.50480e-13
      2145.06  2.40800e-13
      2146.43  2.17400e-13
      2147.81  2.13990e-13
      2149.18  2.19300e-13
      2150.55  2.18060e-13
      2151.93  2.11720e-13
      2153.30  2.30220e-13
      2154.68  2.35450e-13
      2156.05  2.07350e-13
      2157.42  1.80490e-13
      2158.80  1.57840e-13
      2160.17  1.80580e-13
      2161.54  2.09310e-13
      2162.92  2.19060e-13
      2164.29  2.04690e-13
      2165.67  1.84920e-13
      2167.04  1.55710e-13
      2168.41  1.61400e-13
      2169.79  1.69080e-13
      2171.16  1.88400e-13
      2172.54  1.98940e-13
      2173.91  1.85450e-13
      2175.28  1.66810e-13
      2176.66  1.76190e-13
      2178.03  1.84420e-13
      2179.41  2.14310e-13
      2180.78  2.69130e-13
      2182.15  2.83600e-13
      2183.53  2.84710e-13
      2184.90  2.46780e-13
      2186.27  2.45810e-13
      2187.65  2.12450e-13
      2189.02  2.17190e-13
      2190.40  2.27080e-13
      2191.77  2.45420e-13
      2193.14  2.66680e-13
      2194.52  2.80670e-13
      2195.89  2.47730e-13
      2197.27  2.52850e-13
      2198.64  2.81680e-13
      2200.01  2.72430e-13
      2201.39  2.38340e-13
      2202.76  2.79490e-13
      2204.14  3.16150e-13
      2205.51  3.03370e-13
      2206.88  2.71920e-13
      2208.26  2.34590e-13
      2209.63  2.05590e-13
      2211.01  1.79120e-13
      2212.38  1.78170e-13
      2213.75  2.17320e-13
      2215.13  2.20550e-13
      2216.50  2.01950e-13
      2217.88  1.83060e-13
      2219.25  2.25380e-13
      2220.62  2.58570e-13
      2222.00  2.74960e-13
      2223.37  2.65770e-13
      2224.75  2.66590e-13
      2226.12  2.59230e-13
      2227.49  2.51910e-13
      2228.87  2.65130e-13
      2230.24  2.68950e-13
      2231.62  2.69380e-13
      2232.99  3.32260e-13
      2234.36  3.70820e-13
      2235.74  3.76670e-13
      2237.11  3.62450e-13
      2238.49  3.34130e-13
      2239.86  3.32760e-13
      2241.23  3.17140e-13
      2242.61  2.89410e-13
      2243.98  2.75050e-13
      2245.36  2.81020e-13
      2246.73  3.13700e-13
      2248.10  3.32380e-13
      2249.48  3.02460e-13
      2250.85  2.81370e-13
      2252.23  2.84710e-13
      2253.60  2.67010e-13
      2254.97  2.65020e-13
      2256.35  2.56290e-13
      2257.72  2.66890e-13
      2259.10  2.70990e-13
      2260.47  2.49770e-13
      2261.84  2.45790e-13
      2263.22  2.46220e-13
      2264.59  2.18520e-13
      2265.97  1.96630e-13
      2267.34  1.86180e-13
      2268.71  1.78130e-13
      2270.09  1.74290e-13
      2271.46  1.74630e-13
      2272.84  1.88450e-13
      2274.21  1.93770e-13
      2275.58  1.97580e-13
      2276.96  2.11010e-13
      2278.33  2.30440e-13
      2279.71  2.40710e-13
      2281.08  2.64670e-13
      2282.45  2.94360e-13
      2283.83  2.85040e-13
      2285.20  2.89420e-13
      2286.58  2.84520e-13
      2287.95  2.56550e-13
      2289.32  2.60380e-13
      2290.70  2.46340e-13
      2292.07  2.51050e-13
      2293.45  2.53470e-13
      2294.82  2.62200e-13
      2296.19  2.66970e-13
      2297.57  2.27160e-13
      2298.94  2.02360e-13
      2300.32  2.14920e-13
      2301.69  2.29450e-13
      2303.06  2.45430e-13
      2304.44  2.62240e-13
      2305.81  3.20090e-13
      2307.19  3.40550e-13
      2308.56  3.11400e-13
      2309.93  2.70000e-13
      2311.31  2.26710e-13
      2312.68  2.05980e-13
      2314.06  2.11810e-13
      2315.43  2.67700e-13
      2316.80  2.88280e-13
      2318.18  2.81400e-13
      2319.55  2.58520e-13
      2320.93  2.36350e-13
      2322.30  2.65810e-13
      2323.68  3.26340e-13
      2325.05  3.00550e-13
      2326.42  2.53530e-13
      2327.80  2.35040e-13
      2329.17  2.56270e-13
      2330.55  2.62290e-13
      2331.92  2.27630e-13
      2333.29  2.08540e-13
      2334.67  2.31320e-13
      2336.04  2.52230e-13
      2337.42  2.26990e-13
      2338.79  1.83100e-13
      2340.16  1.94230e-13
      2341.54  2.18940e-13
      2342.91  2.06420e-13
      2344.29  1.73410e-13
      2345.66  1.61740e-13
      2347.03  1.67920e-13
      2348.41  1.77870e-13
      2349.78  2.07810e-13
      2351.16  2.49690e-13
      2352.53  2.77270e-13
      2353.90  2.87030e-13
      2355.28  2.68410e-13
      2356.65  2.79600e-13
      2358.03  2.87040e-13
      2359.40  2.47200e-13
      2360.77  2.06850e-13
      2362.15  2.28070e-13
      2363.52  2.53950e-13
      2364.90  2.33480e-13
      2366.27  2.18940e-13
      2367.64  2.22100e-13
      2369.02  2.36880e-13
      2370.39  2.65460e-13
      2371.77  2.92970e-13
      2373.14  2.73430e-13
      2374.51  2.36430e-13
      2375.89  2.38820e-13
      2377.26  2.68650e-13
      2378.64  2.56440e-13
      2380.01  2.16310e-13
      2381.38  1.87830e-13
      2382.76  1.61550e-13
      2384.13  1.71800e-13
      2385.51  2.07740e-13
      2386.88  2.35090e-13
      2388.25  2.27510e-13
      2389.63  2.31010e-13
      2391.00  2.47300e-13
      2392.38  2.68060e-13
      2393.75  2.56900e-13
      2395.12  2.08730e-13
      2396.50  1.79330e-13
      2397.87  1.94620e-13
      2399.25  1.99990e-13
      2400.62  2.11030e-13
      2401.99  2.31410e-13
      2403.37  2.26690e-13
      2404.74  1.98100e-13
      2406.12  1.73560e-13
      2407.49  1.81520e-13
      2408.86  2.07270e-13
      2410.24  2.08800e-13
      2411.61  1.83400e-13
      2412.99  1.94390e-13
      2414.36  2.14980e-13
      2415.73  2.53250e-13
      2417.11  2.82990e-13
      2418.48  3.02740e-13
      2419.85  3.28810e-13
      2421.23  3.55580e-13
      2422.60  3.67760e-13
      2423.98  3.34630e-13
      2425.35  3.18610e-13
      2426.72  3.52710e-13
      2428.10  3.74800e-13
      2429.47  3.41670e-13
      2430.85  3.46110e-13
      2432.22  3.37540e-13
      2433.59  3.16080e-13
      2434.97  3.08600e-13
      2436.34  2.97100e-13
      2437.72  3.12330e-13
      2439.09  3.23170e-13
      2440.46  3.07740e-13
      2441.84  3.39220e-13
      2443.21  3.51330e-13
      2444.59  3.22620e-13
      2445.96  3.03620e-13
      2447.33  2.85730e-13
      2448.71  2.64410e-13
      2450.08  2.61810e-13
      2451.45  2.46650e-13
      2452.83  2.39270e-13
      2454.20  2.37990e-13
      2455.58  2.46600e-13
      2456.95  2.53800e-13
      2458.32  2.58760e-13
      2459.70  2.55280e-13
      2461.07  2.40340e-13
      2462.45  2.26850e-13
      2463.82  2.21730e-13
      2465.19  2.40910e-13
      2466.57  2.47640e-13
      2467.94  2.61060e-13
      2469.31  2.77340e-13
      2470.69  2.71160e-13
      2472.06  2.76840e-13
      2473.44  2.65110e-13
      2474.81  2.89130e-13
      2476.18  3.01730e-13
      2477.56  2.92950e-13
      2478.93  2.69960e-13
      2480.30  2.55990e-13
      2481.68  2.69490e-13
      2483.05  2.35850e-13
      2484.43  2.18750e-13
      2485.80  2.47610e-13
      2487.17  2.47920e-13
      2488.55  2.16430e-13
      2489.92  2.00900e-13
      2491.30  1.93660e-13
      2492.67  2.24950e-13
      2494.04  2.74510e-13
      2495.42  3.25840e-13
      2496.79  3.33380e-13
      2498.16  3.37790e-13
      2499.54  3.45890e-13
      2500.91  3.28210e-13
      2502.28  2.94630e-13
      2503.66  3.12150e-13
      2505.03  2.98520e-13
      2506.41  2.74300e-13
      2507.78  2.52030e-13
      2509.15  2.94860e-13
      2510.53  3.07410e-13
      2511.90  2.74510e-13
      2513.27  2.67100e-13
      2514.65  2.32110e-13
      2516.02  2.11350e-13
      2517.40  2.00060e-13
      2518.77  2.05060e-13
      2520.14  2.14620e-13
      2521.52  2.35720e-13
      2522.89  2.15600e-13
      2524.26  1.99960e-13
      2525.64  2.03330e-13
      2527.01  2.17620e-13
      2528.38  2.04770e-13
      2529.76  1.96400e-13
      2531.13  2.41630e-13
      2532.51  2.69990e-13
      2533.88  2.65560e-13
      2535.25  2.63940e-13
      2536.63  2.57600e-13
      2538.00  2.56720e-13
      2539.37  2.62570e-13
      2540.75  2.74680e-13
      2542.12  2.73700e-13
      2543.49  2.90400e-13
      2544.87  2.93120e-13
      2546.24  2.83110e-13
      2547.61  2.81260e-13
      2548.99  2.71020e-13
      2550.36  2.75240e-13
      2551.74  3.44500e-13
      2553.11  3.82720e-13
      2554.48  4.01530e-13
      2555.86  3.99010e-13
      2557.23  3.92270e-13
      2558.60  4.04950e-13
      2559.98  4.26620e-13
      2561.35  4.16830e-13
      2562.72  3.81020e-13
      2564.10  3.64550e-13
      2565.47  4.43820e-13
      2566.84  5.07630e-13
      2568.22  5.30280e-13
      2569.59  5.65630e-13
      2570.96  5.99750e-13
      2572.34  5.95900e-13
      2573.71  6.13210e-13
      2575.08  5.47580e-13
      2576.46  4.45580e-13
      2577.83  4.72800e-13
      2579.21  5.77410e-13
      2580.58  6.74130e-13
      2581.95  7.17850e-13
      2583.33  6.34000e-13
      2584.70  5.43040e-13
      2586.07  4.47930e-13
      2587.45  4.67670e-13
      2588.82  5.72890e-13
      2590.19  6.75230e-13
      2591.57  6.08980e-13
      2592.94  5.36230e-13
      2594.31  4.77400e-13
      2595.69  4.90550e-13
      2597.06  4.65700e-13
      2598.43  3.69320e-13
      2599.81  3.09890e-13
      2601.18  3.75140e-13
      2602.55  4.72570e-13
      2603.93  4.94020e-13
      2605.30  4.47480e-13
      2606.67  3.76790e-13
      2608.05  3.53120e-13
      2609.42  4.05280e-13
      2610.79  4.02330e-13
      2612.17  3.55000e-13
      2613.54  3.43980e-13
      2614.91  3.84950e-13
      2616.28  4.68210e-13
      2617.66  4.56980e-13
      2619.03  4.63630e-13
      2620.40  5.14200e-13
      2621.78  5.17590e-13
      2623.15  5.46690e-13
      2624.52  5.64220e-13
      2625.90  5.11180e-13
      2627.27  4.74130e-13
      2628.64  4.45480e-13
      2630.02  4.15620e-13
      2631.39  4.11590e-13
      2632.76  4.35520e-13
      2634.14  5.75960e-13
      2635.51  7.17810e-13
      2636.88  8.43780e-13
      2638.26  1.00870e-12
      2639.63  1.09740e-12
      2641.00  1.09200e-12
      2642.38  1.18050e-12
      2643.75  1.30300e-12
      2645.12  1.22360e-12
      2646.49  1.10700e-12
      2647.87  1.00530e-12
      2649.24  9.10380e-13
      2650.61  9.28040e-13
      2651.99  9.69440e-13
      2653.36  1.04650e-12
      2654.73  1.16450e-12
      2656.11  1.23360e-12
      2657.48  1.22160e-12
      2658.85  1.18490e-12
      2660.22  1.18990e-12
      2661.60  1.13450e-12
      2662.97  1.05150e-12
      2664.34  1.00590e-12
      2665.72  1.04260e-12
      2667.09  1.03640e-12
      2668.46  1.04550e-12
      2669.84  1.05890e-12
      2671.21  1.07990e-12
      2672.58  1.02430e-12
      2673.95  1.04830e-12
      2675.33  1.19390e-12
      2676.70  1.18810e-12
      2678.07  1.09490e-12
      2679.45  1.00590e-12
      2680.82  1.03230e-12
      2682.19  1.08140e-12
      2683.56  1.08170e-12
      2684.94  1.07300e-12
      2686.31  1.09190e-12
      2687.68  1.08700e-12
      2689.06  1.02140e-12
      2690.43  9.69190e-13
      2691.80  9.95390e-13
      2693.17  1.04700e-12
      2694.55  1.05000e-12
      2695.92  9.72040e-13
      2697.29  9.59180e-13
      2698.66  1.01260e-12
      2700.04  1.13020e-12
      2701.41  1.20740e-12
      2702.78  1.20230e-12
      2704.16  1.23580e-12
      2705.53  1.26520e-12
      2706.90  1.19050e-12
      2708.27  1.10140e-12
      2709.65  1.09310e-12
      2711.02  1.08300e-12
      2712.39  1.12100e-12
      2713.76  1.10600e-12
      2715.14  1.03070e-12
      2716.51  9.69120e-13
      2717.88  9.67400e-13
      2719.25  8.14510e-13
      2720.63  7.02040e-13
      2722.00  7.57140e-13
      2723.37  8.28220e-13
      2724.75  8.59590e-13
      2726.12  8.73430e-13
      2727.49  8.99670e-13
      2728.86  9.95270e-13
      2730.24  1.14000e-12
      2731.61  1.15650e-12
      2732.98  1.04670e-12
      2734.35  9.55880e-13
      2735.73  8.68590e-13
      2737.10  8.06790e-13
      2738.47  7.13760e-13
      2739.84  6.62760e-13
      2741.22  6.30090e-13
      2742.59  6.02720e-13
      2743.96  5.54540e-13
      2745.33  5.91800e-13
      2746.70  5.81270e-13
      2748.08  5.61780e-13
      2749.45  5.60960e-13
      2750.82  5.68020e-13
      2752.19  7.20320e-13
      2753.57  8.44900e-13
      2754.94  7.82580e-13
      2756.31  6.81950e-13
      2757.68  7.53920e-13
      2759.06  9.87920e-13
      2760.43  1.13030e-12
      2761.80  1.04950e-12
      2763.17  1.00280e-12
      2764.55  1.06140e-12
      2765.92  1.17970e-12
      2767.29  1.14970e-12
      2768.66  1.07180e-12
      2770.03  1.06840e-12
      2771.41  1.11360e-12
      2772.78  1.16740e-12
      2774.15  1.16980e-12
      2775.52  1.15870e-12
      2776.90  1.05330e-12
      2778.27  9.54870e-13
      2779.64  8.40130e-13
      2781.01  7.78250e-13
      2782.38  7.74880e-13
      2783.76  7.75630e-13
      2785.13  7.70970e-13
      2786.50  7.75290e-13
      2787.87  7.40340e-13
      2789.24  6.41990e-13
      2790.62  5.69020e-13
      2791.99  4.82740e-13
      2793.36  4.17510e-13
      2794.73  3.95790e-13
      2796.10  4.47610e-13
      2797.48  4.23140e-13
      2798.85  3.57710e-13
      2800.22  3.60190e-13
      2801.59  3.75290e-13
      2802.96  4.10570e-13
      2804.34  4.44260e-13
      2805.71  4.18200e-13
      2807.08  4.98110e-13
      2808.45  5.87090e-13
      2809.82  6.91280e-13
      2811.20  7.65540e-13
      2812.57  8.09380e-13
      2813.94  8.80060e-13
      2815.31  1.03880e-12
      2816.68  1.11790e-12
      2818.06  1.11230e-12
      2819.43  1.20580e-12
      2820.80  1.28140e-12
      2822.17  1.31080e-12
      2823.54  1.31210e-12
      2824.91  1.40250e-12
      2826.29  1.34310e-12
      2827.66  1.33590e-12
      2829.03  1.39780e-12
      2830.40  1.49490e-12
      2831.77  1.50320e-12
      2833.14  1.45540e-12
      2834.52  1.44500e-12
      2835.89  1.32060e-12
      2837.26  1.30410e-12
      2838.63  1.48120e-12
      2840.00  1.44830e-12
      2841.37  1.34710e-12
      2842.75  1.35780e-12
      2844.12  1.21340e-12
      2845.49  1.23500e-12
      2846.86  1.13950e-12
      2848.23  9.54270e-13
      2849.60  7.76420e-13
      2850.98  5.93390e-13
      2852.35  4.42410e-13
      2853.72  4.34570e-13
      2855.09  5.97160e-13
      2856.46  7.71830e-13
      2857.83  9.58040e-13
      2859.20  1.14360e-12
      2860.58  1.40700e-12
      2861.95  1.51250e-12
      2863.32  1.52200e-12
      2864.69  1.58900e-12
      2866.06  1.57900e-12
      2867.43  1.52420e-12
      2868.80  1.42020e-12
      2870.18  1.44180e-12
      2871.55  1.72340e-12
      2872.92  1.75260e-12
      2874.29  1.65330e-12
      2875.66  1.59850e-12
      2877.03  1.51420e-12
      2878.40  1.48680e-12
      2879.77  1.28650e-12
      2881.15  1.03960e-12
      2882.52  8.93000e-13
      2883.89  1.18310e-12
      2885.26  1.54780e-12
      2886.63  1.73980e-12
      2888.00  1.74830e-12
      2889.37  1.72670e-12
      2890.74  1.73060e-12
      2892.12  1.77450e-12
      2893.49  1.80630e-12
      2894.86  1.85630e-12
      2896.23  2.08360e-12
      2897.60  2.22530e-12
      2898.97  2.28310e-12
      2900.34  2.54490e-12
      2901.71  2.68660e-12
      2903.08  2.55690e-12
      2904.46  2.76150e-12
      2905.83  2.74220e-12
      2907.20  2.55920e-12
      2908.57  2.51940e-12
      2909.94  2.45660e-12
      2911.31  2.45260e-12
      2912.68  2.58890e-12
      2914.05  2.73950e-12
      2915.42  2.46710e-12
      2916.79  2.35170e-12
      2918.16  2.33320e-12
      2919.54  2.34800e-12
      2920.91  2.38610e-12
      2922.28  2.39340e-12
      2923.65  2.27560e-12
      2925.02  2.08620e-12
      2926.39  1.97650e-12
      2927.76  1.99820e-12
      2929.13  2.02450e-12
      2930.50  2.22310e-12
      2931.87  2.50290e-12
      2933.24  2.55620e-12
      2934.61  2.54330e-12
      2935.99  2.54110e-12
      2937.36  2.08270e-12
      2938.73  1.95930e-12
      2940.10  2.07950e-12
      2941.47  2.12050e-12
      2942.84  2.26390e-12
      2944.21  2.36290e-12
      2945.58  2.34140e-12
      2946.95  2.41100e-12
      2948.32  2.00270e-12
      2949.69  1.80160e-12
      2951.06  2.19050e-12
      2952.43  2.46150e-12
      2953.80  2.42740e-12
      2955.17  2.30410e-12
      2956.54  2.45830e-12
      2957.91  2.39140e-12
      2959.28  2.58460e-12
      2960.66  2.51270e-12
      2962.03  2.56020e-12
      2963.40  2.72200e-12
      2964.77  2.37580e-12
      2966.14  1.87140e-12
      2967.51  1.69700e-12
      2968.88  1.88920e-12
      2970.25  1.79660e-12
      2971.62  1.89620e-12
      2972.99  1.96900e-12
      2974.36  2.09090e-12
      2975.73  2.46940e-12
      2977.10  2.70240e-12
      2978.47  2.84380e-12
      2979.84  2.53510e-12
      2981.21  2.17150e-12
      2982.58  1.85050e-12
      2983.95  1.62830e-12
      2985.32  1.48530e-12
      2986.69  1.59910e-12
      2988.06  1.84080e-12
      2989.43  2.18560e-12
      2990.80  2.52420e-12
      2992.17  2.52050e-12
      2993.54  2.27720e-12
      2994.91  1.97840e-12
      2996.28  2.10320e-12
      2997.65  2.41870e-12
      2999.02  2.21350e-12
      3000.39  1.70990e-12
      3001.76  1.48430e-12
      3003.13  1.48500e-12
      3004.50  1.72710e-12
      3005.87  2.01150e-12
      3007.24  1.96280e-12
      3008.61  1.77970e-12
      3009.98  1.92550e-12
      3011.35  2.20970e-12
      3012.72  2.23650e-12
      3014.09  2.31230e-12
      3015.46  2.31480e-12
      3016.83  2.19790e-12
      3018.20  1.93020e-12
      3019.57  1.62810e-12
      3020.94  1.42380e-12
      3022.31  1.66780e-12
      3023.68  2.19140e-12
      3025.05  2.26330e-12
      3026.42  2.21840e-12
      3027.79  2.63300e-12
      3029.16  2.87090e-12
      3030.53  2.70050e-12
      3031.90  2.78000e-12
      3033.27  2.93790e-12
      3034.63  3.01630e-12
      3036.00  2.94230e-12
      3037.37  2.61710e-12
      3038.74  2.31550e-12
      3040.11  2.49550e-12
      3041.48  2.46960e-12
      3042.85  2.43230e-12
      3044.22  2.72620e-12
      3045.59  2.90880e-12
      3046.96  2.72750e-12
      3048.33  2.43880e-12
      3049.70  2.66580e-12
      3051.07  2.95150e-12
      3052.44  3.17750e-12
      3053.81  3.08560e-12
      3055.18  2.74340e-12
      3056.55  2.56030e-12
      3057.91  2.12360e-12
      3059.28  1.90170e-12
      3060.65  2.23300e-12
      3062.02  2.65630e-12
      3066.47  2.55990e-12
      3069.22  2.75090e-12
      3071.97  2.80150e-12
      3074.71  2.69600e-12
      3077.46  2.73880e-12
      3080.21  2.74680e-12
      3082.95  2.79000e-12
      3085.70  2.83910e-12
      3088.45  2.53720e-12
      3091.19  2.25370e-12
      3093.94  2.21330e-12
      3096.69  2.21940e-12
      3099.43  2.13430e-12
      3102.18  2.51790e-12
      3104.93  3.05270e-12
      3107.67  3.34120e-12
      3110.42  3.31120e-12
      3113.17  3.25210e-12
      3115.91  2.99550e-12
      3118.66  2.73030e-12
      3121.41  2.79060e-12
      3124.15  2.91370e-12
      3126.90  2.93840e-12
      3129.65  2.98050e-12
      3132.39  2.94560e-12
      3135.14  3.10860e-12
      3137.89  3.27810e-12
      3140.63  3.01060e-12
      3143.38  2.76640e-12
      3146.13  2.71590e-12
      3148.87  3.07640e-12
      3151.62  3.07770e-12
      3154.37  2.80500e-12
      3157.11  2.44780e-12
      3159.86  2.49910e-12
      3162.61  2.63730e-12
      3165.36  2.90050e-12
      3168.10  3.15820e-12
      3170.85  3.51540e-12
      3173.60  3.48290e-12
      3176.34  3.25190e-12
      3179.09  2.76620e-12
      3181.84  2.54510e-12
      3184.59  2.88580e-12
      3187.33  3.09810e-12
      3190.08  3.09040e-12
      3192.83  2.76570e-12
      3195.57  3.01720e-12
      3198.32  3.33640e-12
      3201.07  3.46030e-12
      3203.82  3.62060e-12
      3206.56  3.53760e-12
      3209.31  3.05230e-12
      3212.06  2.69920e-12
      3214.80  2.86200e-12
      3217.55  3.17920e-12
      3220.30  3.29840e-12
      3223.05  3.05050e-12
      3225.79  2.77440e-12
      3228.54  2.57800e-12
      3231.29  2.78950e-12
      3234.04  2.80860e-12
      3236.78  2.91330e-12
      3239.53  3.17500e-12
      3242.28  3.34390e-12
      3245.03  3.37780e-12
      3247.77  3.25350e-12
      3250.52  3.28790e-12
      3253.27  3.58800e-12
      3256.02  3.96390e-12
      3258.76  4.17750e-12
      3261.51  4.18030e-12
      3264.26  4.07450e-12
      3267.01  4.14890e-12
      3269.75  4.09370e-12
      3272.50  4.01760e-12
      3275.25  4.05130e-12
      3278.00  3.87820e-12
      3280.74  3.87090e-12
      3283.49  3.80100e-12
      3286.24  3.60520e-12
      3288.99  3.90940e-12
      3291.73  4.35980e-12
      3294.48  4.54100e-12
      3297.23  4.61700e-12
      3299.98  4.67150e-12
      3302.73  4.28580e-12
      3305.47  3.93610e-12
      3308.22  4.02310e-12
      3310.97  4.15940e-12
      3313.72  4.01340e-12
      3316.46  4.12450e-12
      3319.21  4.17580e-12
      3321.96  3.89800e-12
      3324.71  3.93870e-12
      3327.46  4.00800e-12
      3330.20  3.97440e-12
      3332.95  3.99120e-12
      3335.70  3.68790e-12
      3338.45  3.78240e-12
      3341.20  3.97760e-12
      3343.94  4.18760e-12
      3346.69  4.12090e-12
      3349.44  3.90400e-12
      3352.19  4.17460e-12
      3354.94  4.30380e-12
      3357.68  3.84430e-12
      3360.43  3.07350e-12
      3363.18  3.53150e-12
      3365.93  3.77650e-12
      3368.68  3.33980e-12
      3371.42  3.25070e-12
      3374.17  3.70040e-12
      3376.92  4.06680e-12
      3379.67  3.64110e-12
      3382.42  3.76640e-12
      3385.16  4.07730e-12
      3387.91  4.01710e-12
      3390.66  3.90970e-12
      3393.41  3.74340e-12
      3396.16  4.10160e-12
      3398.90  4.52060e-12
      3401.65  4.53790e-12
      3404.40  4.21210e-12
      3407.15  4.00410e-12
      3409.90  3.96820e-12
      3412.65  3.88120e-12
      3415.39  3.75760e-12
      3418.14  4.13280e-12
      3420.89  4.26550e-12
      3423.64  4.01580e-12
      3426.39  4.08400e-12
      3429.14  4.31960e-12
      3431.88  4.26720e-12
      3434.63  4.11190e-12
      3437.38  3.88000e-12
      3440.13  3.26840e-12
      3442.88  2.98910e-12
      3445.62  3.31640e-12
      3448.37  3.78430e-12
      3451.12  3.96050e-12
      3453.87  4.00690e-12
      3456.62  3.94210e-12
      3459.37  3.62940e-12
      3462.11  3.64640e-12
      3464.86  3.94640e-12
      3467.61  4.06360e-12
      3470.36  4.10540e-12
      3473.11  3.79300e-12
      3475.86  3.46560e-12
      3478.61  3.72880e-12
      3481.35  3.85030e-12
      3484.10  3.75330e-12
      3486.85  3.86140e-12
      3489.60  3.64260e-12
      3492.35  3.58840e-12
      3495.10  3.62180e-12
      3497.84  3.77530e-12
      3500.59  4.33640e-12
      3503.34  4.56690e-12
      3506.09  4.36060e-12
      3508.84  4.27010e-12
      3511.59  3.98650e-12
      3514.34  3.85680e-12
      3517.08  4.24310e-12
      3519.83  4.25560e-12
      3522.58  3.83900e-12
      3525.33  3.49310e-12
      3528.08  3.82630e-12
      3530.83  4.21960e-12
      3533.58  4.30080e-12
      3536.32  4.47320e-12
      3539.07  4.62480e-12
      3541.82  4.58110e-12
      3544.57  4.68320e-12
      3547.32  4.73260e-12
      3550.07  4.70200e-12
      3552.82  4.48970e-12
      3555.57  4.33190e-12
      3558.31  4.33970e-12
      3561.06  4.35390e-12
      3563.81  4.28470e-12
      3566.56  3.61920e-12
      3569.31  3.40370e-12
      3572.06  3.47650e-12
      3574.81  3.74570e-12
      3577.56  3.78510e-12
      3580.30  3.25520e-12
      3583.05  2.93330e-12
      3585.80  2.87660e-12
      3588.55  3.21940e-12
      3591.30  3.98410e-12
      3594.05  4.38770e-12
      3596.80  4.66400e-12
      3599.55  4.78370e-12
      3602.29  4.48720e-12
      3605.04  4.00490e-12
      3607.79  3.80580e-12
      3610.54  3.63280e-12
      3613.29  3.91670e-12
      3616.04  4.03320e-12
      3618.79  3.61410e-12
      3621.54  3.78640e-12
      3624.28  4.35820e-12
      3627.03  4.56730e-12
      3629.78  4.60880e-12
      3632.53  3.81440e-12
      3635.28  3.99670e-12
      3638.03  4.45320e-12
      3640.78  4.73730e-12
      3643.53  4.49960e-12
      3646.28  4.14380e-12
      3649.02  4.05320e-12
      3651.77  4.48380e-12
      3654.52  4.94520e-12
      3657.27  5.26320e-12
      3660.02  5.40200e-12
      3662.77  5.30830e-12
      3665.52  5.10890e-12
      3668.27  5.02350e-12
      3671.02  5.02450e-12
      3673.76  5.08320e-12
      3676.51  4.92670e-12
      3679.26  4.70140e-12
      3682.01  4.62590e-12
      3684.76  4.74820e-12
      3687.51  4.49920e-12
      3690.26  4.81940e-12
      3693.01  5.29070e-12
      3695.76  5.20380e-12
      3698.51  5.38030e-12
      3701.25  5.52200e-12
      3704.00  4.96090e-12
      3706.75  4.31690e-12
      3709.50  4.45880e-12
      3712.25  5.16310e-12
      3715.00  5.60040e-12
      3717.75  5.17310e-12
      3720.50  4.18590e-12
      3723.25  4.09840e-12
      3725.99  4.83520e-12
      3728.74  4.78080e-12
      3731.49  4.52900e-12
      3734.24  3.73260e-12
      3736.99  3.38180e-12
      3739.74  4.18420e-12
      3742.49  4.59520e-12
      3745.24  3.95910e-12
      3747.99  3.51170e-12
      3750.74  3.67610e-12
      3753.49  4.65400e-12
      3756.23  5.03160e-12
      3758.98  4.52190e-12
      3761.73  4.55100e-12
      3764.48  4.65080e-12
      3767.23  4.57790e-12
      3769.98  4.75560e-12
      3772.73  5.13520e-12
      3775.48  5.50090e-12
      3778.23  5.71780e-12
      3780.98  6.01660e-12
      3783.72  6.08700e-12
      3786.47  5.57990e-12
      3789.22  4.94640e-12
      3791.97  4.88530e-12
      3794.72  4.58730e-12
      3797.47  4.27130e-12
      3800.22  4.45840e-12
      3802.97  5.22260e-12
      3805.72  5.50830e-12
      3808.47  5.40030e-12
      3811.22  5.56370e-12
      3813.96  4.92090e-12
      3816.71  4.27830e-12
      3819.46  4.21310e-12
      3822.21  3.88860e-12
      3824.96  3.66980e-12
      3827.71  3.24150e-12
      3830.46  3.24770e-12
      3833.21  3.07440e-12
      3835.96  3.06380e-12
      3838.71  3.10780e-12
      3841.45  3.48760e-12
      3844.20  4.36360e-12
      3846.95  4.74590e-12
      3849.70  4.78530e-12
      3852.45  4.71750e-12
      3855.20  4.55100e-12
      3857.95  4.19960e-12
      3860.70  4.07780e-12
      3863.45  4.66980e-12
      3866.20  4.73620e-12
      3868.95  4.60530e-12
      3871.69  4.15110e-12
      3874.44  4.45030e-12
      3877.19  4.71150e-12
      3879.94  4.33740e-12
      3882.69  4.22240e-12
      3885.44  4.30150e-12
      3888.19  4.07380e-12
      3890.94  4.43040e-12
      3893.69  5.03220e-12
      3896.44  5.27180e-12
      3899.19  5.37250e-12
      3901.93  5.34340e-12
      3904.68  5.00730e-12
      3907.43  5.11140e-12
      3910.18  5.69230e-12
      3912.93  5.98380e-12
      3915.68  5.77340e-12
      3918.43  5.47190e-12
      3921.18  5.00110e-12
      3923.93  4.74870e-12
      3926.68  4.22580e-12
      3929.43  3.20770e-12
      3932.17  2.31000e-12
      3934.92  1.99980e-12
      3937.67  2.58790e-12
      3940.42  3.57210e-12
      3943.17  4.13080e-12
      3945.92  4.60570e-12
      3948.67  5.16680e-12
      3951.42  5.49560e-12
      3954.17  5.53060e-12
      3956.92  5.44670e-12
      3959.66  5.23650e-12
      3962.41  4.30730e-12
      3965.16  3.37800e-12
      3967.91  2.51220e-12
      3970.66  2.46540e-12
      3973.41  3.42580e-12
      3976.16  4.50290e-12
      3978.91  5.48580e-12
      3981.66  6.11560e-12
      3984.41  6.23410e-12
      3987.15  6.37480e-12
      3989.90  6.72480e-12
      3992.65  6.87900e-12
      3995.40  6.91160e-12
      3998.15  6.90880e-12
      4000.90  7.17000e-12
      4003.65  7.22350e-12
      4006.40  6.74790e-12
      4009.15  7.03820e-12
      4011.90  7.34930e-12
      4014.64  7.41860e-12
      4017.39  7.48580e-12
      4020.14  7.51260e-12
      4022.89  7.51300e-12
      4025.64  7.49430e-12
      4028.39  7.55930e-12
      4031.14  7.01480e-12
      4033.89  6.73950e-12
      4036.64  7.20480e-12
      4039.39  7.64200e-12
      4042.13  7.43600e-12
      4044.88  6.83870e-12
      4047.63  6.58640e-12
      4050.38  7.16450e-12
      4053.13  7.26280e-12
      4055.88  6.98330e-12
      4058.63  6.72820e-12
      4061.38  6.89480e-12
      4064.13  6.44980e-12
      4066.87  6.67160e-12
      4069.62  7.00160e-12
      4072.37  6.81010e-12
      4075.12  6.89680e-12
      4077.87  6.62500e-12
      4080.62  6.97450e-12
      4083.37  7.34710e-12
      4086.12  7.36500e-12
      4088.87  7.71970e-12
      4091.61  7.68250e-12
      4094.36  7.37800e-12
      4097.11  6.91320e-12
      4099.86  6.33250e-12
      4102.61  5.74270e-12
      4105.36  6.37500e-12
      4108.11  7.04740e-12
      4110.86  7.25500e-12
      4113.60  7.53470e-12
      4116.35  7.71100e-12
      4119.10  7.69890e-12
      4121.85  7.62600e-12
      4124.60  7.63460e-12
      4127.35  7.52110e-12
      4130.10  7.31250e-12
      4132.85  7.06450e-12
      4135.59  7.34310e-12
      4138.34  7.74630e-12
      4141.09  7.88910e-12
      4143.84  7.31780e-12
      4146.59  7.41040e-12
      4149.34  7.54270e-12
      4152.09  7.52070e-12
      4154.84  7.27570e-12
      4157.58  7.21130e-12
      4160.33  7.53420e-12
      4163.08  7.85180e-12
      4165.83  7.87530e-12
      4168.58  7.57070e-12
      4171.33  7.39520e-12
      4174.08  6.93950e-12
      4176.83  6.99270e-12
      4179.57  7.16960e-12
      4182.32  7.26110e-12
      4185.07  7.19920e-12
      4187.82  7.07600e-12
      4190.57  7.31070e-12
      4193.32  7.57980e-12
      4196.07  7.39840e-12
      4198.81  6.99780e-12
      4201.56  6.86650e-12
      4204.31  7.22310e-12
      4207.06  7.62690e-12
      4209.81  7.83090e-12
      4212.56  7.82840e-12
      4215.31  7.68110e-12
      4218.05  7.51760e-12
      4220.80  7.50770e-12
      4223.55  7.31750e-12
      4226.30  6.44650e-12
      4229.05  6.52810e-12
      4231.80  7.40990e-12
      4234.55  7.35500e-12
      4237.29  7.05670e-12
      4240.04  7.12170e-12
      4242.79  7.41260e-12
      4245.54  7.55360e-12
      4248.29  7.20500e-12
      4251.04  6.95200e-12
      4253.78  7.27320e-12
      4256.53  7.23520e-12
      4259.28  7.15000e-12
      4262.03  6.87610e-12
      4264.78  7.41910e-12
      4267.53  7.53460e-12
      4270.27  6.97860e-12
      4273.02  6.30660e-12
      4275.77  6.64770e-12
      4278.52  7.22970e-12
      4281.27  7.18120e-12
      4284.02  7.05970e-12
      4286.76  6.73960e-12
      4289.51  6.51700e-12
      4292.26  6.37150e-12
      4295.01  6.56590e-12
      4297.76  6.15810e-12
      4300.51  5.37770e-12
      4303.25  5.22890e-12
      4306.00  5.29040e-12
      4308.75  5.06720e-12
      4311.50  5.35500e-12
      4314.25  6.28290e-12
      4317.00  7.43190e-12
      4319.74  7.71430e-12
      4322.49  7.44020e-12
      4325.24  6.55640e-12
      4327.99  6.66760e-12
      4330.74  7.49800e-12
      4333.48  7.64600e-12
      4336.23  7.34720e-12
      4338.98  6.34490e-12
      4341.73  6.07030e-12
      4344.48  6.38290e-12
      4347.22  7.21830e-12
      4349.97  7.48270e-12
      4352.72  7.11770e-12
      4355.47  7.22880e-12
      4358.22  7.65750e-12
      4360.96  7.79100e-12
      4363.71  8.06220e-12
      4366.46  8.17440e-12
      4369.21  7.83520e-12
      4371.96  7.65690e-12
      4374.70  7.39120e-12
      4377.45  7.42620e-12
      4380.20  7.55650e-12
      4382.95  6.93780e-12
      4385.70  6.30430e-12
      4388.44  7.00290e-12
      4391.19  7.25240e-12
      4393.94  7.42080e-12
      4396.69  7.57110e-12
      4399.44  7.73660e-12
      4402.18  7.50800e-12
      4404.93  7.30260e-12
      4407.68  7.30580e-12
      4410.43  7.76330e-12
      4413.17  8.01290e-12
      4415.92  7.75640e-12
      4418.67  7.94810e-12
      4421.42  8.14740e-12
      4424.17  8.03870e-12
      4426.91  8.01530e-12
      4429.66  8.13460e-12
      4432.41  8.00830e-12
      4435.16  7.80930e-12
      4437.90  7.99910e-12
      4440.65  8.25180e-12
      4443.40  7.94910e-12
      4446.15  8.17140e-12
      4448.89  8.36770e-12
      4451.64  8.15970e-12
      4454.39  7.67310e-12
      4457.14  7.40690e-12
      4459.88  7.43740e-12
      4462.63  7.57590e-12
      4465.38  7.89440e-12
      4468.13  8.03020e-12
      4470.88  8.04680e-12
      4473.62  8.37020e-12
      4476.37  8.46210e-12
      4479.12  8.47190e-12
      4481.86  8.01410e-12
      4484.61  8.21240e-12
      4487.36  8.49640e-12
      4490.11  8.24720e-12
      4492.85  8.29300e-12
      4495.60  8.30150e-12
      4498.35  8.37830e-12
      4501.10  8.51790e-12
      4503.84  8.72360e-12
      4506.59  9.04760e-12
      4509.34  8.96520e-12
      4512.09  8.93320e-12
      4514.83  8.58310e-12
      4517.58  8.50650e-12
      4520.33  8.62150e-12
      4523.07  8.58790e-12
      4525.82  8.17230e-12
      4528.57  7.80690e-12
      4531.32  7.75600e-12
      4534.06  7.89100e-12
      4536.81  8.15280e-12
      4539.56  8.50910e-12
      4542.30  8.34330e-12
      4545.05  8.33180e-12
      4547.80  8.09710e-12
      4550.55  7.94060e-12
      4553.29  8.07710e-12
      4556.04  8.11960e-12
      4558.79  8.53820e-12
      4561.53  8.72720e-12
      4564.28  8.57720e-12
      4567.03  8.44630e-12
      4569.77  8.59820e-12
      4572.52  8.61010e-12
      4575.27  8.71320e-12
      4578.02  8.67500e-12
      4580.76  8.35580e-12
      4583.51  8.05920e-12
      4586.26  8.04560e-12
      4589.00  8.43430e-12
      4591.75  8.36030e-12
      4594.50  8.27560e-12
      4597.24  8.22720e-12
      4599.99  8.27620e-12
      4602.74  8.33300e-12
      4605.48  8.45700e-12
      4608.23  8.64830e-12
      4610.98  8.63550e-12
      4613.72  8.56720e-12
      4616.47  8.62340e-12
      4619.22  8.61720e-12
      4621.96  8.65180e-12
      4624.71  8.68690e-12
      4627.46  8.71440e-12
      4630.20  8.69130e-12
      4632.95  8.69530e-12
      4635.70  8.54820e-12
      4638.44  8.43500e-12
      4641.19  8.36220e-12
      4643.94  8.36250e-12
      4646.68  8.08230e-12
      4649.43  7.92500e-12
      4652.17  8.27750e-12
      4654.92  8.28260e-12
      4657.67  8.39420e-12
      4660.41  8.60230e-12
      4663.16  8.34450e-12
      4665.91  8.00840e-12
      4668.65  7.68120e-12
      4671.40  8.04490e-12
      4674.15  8.24250e-12
      4676.89  8.41070e-12
      4679.64  8.24930e-12
      4682.38  8.25760e-12
      4685.13  8.34600e-12
      4687.88  8.27340e-12
      4690.62  8.25570e-12
      4693.37  8.30080e-12
      4696.11  8.33180e-12
      4698.86  8.16510e-12
      4701.61  7.91890e-12
      4704.35  7.74290e-12
      4707.10  7.94670e-12
      4709.84  7.91740e-12
      4712.59  8.22230e-12
      4715.34  8.15860e-12
      4718.08  8.47370e-12
      4720.83  8.65940e-12
      4723.57  8.70140e-12
      4726.32  8.55520e-12
      4729.07  8.22870e-12
      4731.81  8.21910e-12
      4734.56  8.26610e-12
      4737.30  8.30790e-12
      4740.05  8.45890e-12
      4742.79  8.48270e-12
      4745.54  8.51330e-12
      4748.29  8.58750e-12
      4751.03  8.56100e-12
      4753.78  8.40560e-12
      4756.52  8.32190e-12
      4759.27  8.35530e-12
      4762.01  8.28750e-12
      4764.76  8.06570e-12
      4767.51  8.15570e-12
      4770.25  8.36440e-12
      4773.00  8.49900e-12
      4775.74  8.61460e-12
      4778.49  8.70250e-12
      4781.23  8.68980e-12
      4783.98  8.48800e-12
      4786.72  8.38050e-12
      4789.47  8.31380e-12
      4792.22  8.40920e-12
      4794.96  8.64810e-12
      4797.71  8.56030e-12
      4800.45  8.46150e-12
      4803.20  8.48440e-12
      4805.94  8.37810e-12
      4808.69  8.37180e-12
      4811.43  8.40600e-12
      4814.18  8.54130e-12
      4816.92  8.56580e-12
      4819.67  8.56660e-12
      4822.41  8.38090e-12
      4825.16  8.35380e-12
      4827.90  8.43920e-12
      4830.65  8.32380e-12
      4833.39  8.31900e-12
      4836.14  8.31320e-12
      4838.88  8.19590e-12
      4841.63  8.11390e-12
      4844.37  8.12110e-12
      4847.12  8.20690e-12
      4849.86  8.03130e-12
      4852.61  7.93900e-12
      4855.35  7.52640e-12
      4858.10  7.00630e-12
      4860.84  6.21410e-12
      4863.59  6.36110e-12
      4866.33  6.78170e-12
      4869.08  7.25170e-12
      4871.82  7.20920e-12
      4874.57  7.37830e-12
      4877.31  7.64050e-12
      4880.06  7.96030e-12
      4882.80  8.00710e-12
      4885.54  7.84660e-12
      4888.29  7.56090e-12
      4891.03  7.43870e-12
      4893.78  7.81600e-12
      4896.52  8.28500e-12
      4899.27  8.32640e-12
      4902.01  8.26990e-12
      4904.76  8.19090e-12
      4907.50  8.19850e-12
      4910.25  8.01200e-12
      4912.99  7.95530e-12
      4915.73  7.89690e-12
      4918.48  7.75020e-12
      4921.22  7.25640e-12
      4923.97  7.52670e-12
      4926.71  7.88600e-12
      4929.46  8.01100e-12
      4932.20  8.10510e-12
      4934.94  7.92090e-12
      4937.69  7.84420e-12
      4940.43  7.96580e-12
      4943.18  8.17880e-12
      4945.92  8.28660e-12
      4948.66  8.34670e-12
      4951.41  8.37220e-12
      4954.15  8.19580e-12
      4956.90  7.93620e-12
      4959.64  7.79980e-12
      4962.38  8.20940e-12
      4965.13  8.30550e-12
      4967.87  8.16200e-12
      4970.62  8.08230e-12
      4973.36  8.24770e-12
      4976.10  8.28000e-12
      4978.85  8.09370e-12
      4981.59  7.84120e-12
      4984.33  7.48080e-12
      4987.08  7.69440e-12
      4989.82  8.00510e-12
      4992.56  8.04970e-12
      4995.31  8.07750e-12
      4998.05  8.10110e-12
      5000.80  7.88840e-12
      5003.54  7.64950e-12
      5006.28  7.59000e-12
      5009.03  7.56270e-12
      5011.77  7.71810e-12
      5014.51  7.50110e-12
      5017.26  7.50810e-12
      5020.00  7.51620e-12
      5022.74  7.71620e-12
      5025.49  7.84650e-12
      5028.23  7.79680e-12
      5030.97  7.98200e-12
      5033.72  7.96630e-12
      5036.46  7.92250e-12
      5039.20  7.73320e-12
      5041.95  7.43800e-12
      5044.69  7.74860e-12
      5047.43  8.03210e-12
      5050.17  7.93010e-12
      5052.92  7.91010e-12
      5055.66  8.09010e-12
      5058.40  8.28680e-12
      5061.15  8.31630e-12
      5063.89  8.23510e-12
      5066.63  7.91340e-12
      5069.38  8.01730e-12
      5072.12  7.94210e-12
      5074.86  7.91020e-12
      5077.60  7.89680e-12
      5080.35  7.63700e-12
      5083.09  7.60700e-12
      5085.83  7.86970e-12
      5088.57  8.06500e-12
      5091.32  8.13240e-12
      5094.06  8.16820e-12
      5096.80  8.09900e-12
      5099.54  7.72550e-12
      5102.29  7.84830e-12
      5105.03  7.98190e-12
      5107.77  7.88460e-12
      5110.52  7.79850e-12
      5113.26  7.86020e-12
      5116.00  8.08800e-12
      5118.74  8.16030e-12
      5121.48  8.18410e-12
      5124.23  7.81550e-12
      5126.97  7.68360e-12
      5129.71  7.64090e-12
      5132.45  7.73760e-12
      5135.20  7.70910e-12
      5137.94  7.63450e-12
      5140.68  7.46390e-12
      5143.42  7.47030e-12
      5146.16  7.61870e-12
      5148.91  7.56740e-12
      5151.65  7.67720e-12
      5154.39  7.65030e-12
      5157.13  7.74480e-12
      5159.87  7.72940e-12
      5162.62  7.54010e-12
      5165.36  7.21300e-12
      5168.10  6.43800e-12
      5170.84  6.35740e-12
      5173.58  6.32010e-12
      5176.32  7.08180e-12
      5179.07  7.46390e-12
      5181.81  7.26780e-12
      5184.55  6.40590e-12
      5187.29  6.83480e-12
      5190.03  7.29860e-12
      5192.77  7.30570e-12
      5195.52  7.34600e-12
      5198.26  7.50000e-12
      5201.00  7.67180e-12
      5203.74  7.64900e-12
      5206.48  7.42490e-12
      5209.22  7.36980e-12
      5211.96  7.62060e-12
      5214.71  7.73980e-12
      5217.45  7.63400e-12
      5220.19  7.72510e-12
      5222.93  7.77230e-12
      5225.67  7.51940e-12
      5228.41  7.10270e-12
      5231.15  7.31280e-12
      5233.89  7.41700e-12
      5236.63  7.56110e-12
      5239.38  7.89030e-12
      5242.12  7.96600e-12
      5244.86  7.96870e-12
      5247.60  7.86450e-12
      5250.34  7.75450e-12
      5253.08  7.74130e-12
      5255.82  7.70720e-12
      5258.56  7.74590e-12
      5261.30  7.72580e-12
      5264.04  7.11150e-12
      5266.78  6.74320e-12
      5269.52  6.78830e-12
      5272.26  6.91840e-12
      5275.00  7.29920e-12
      5277.75  7.50730e-12
      5280.49  7.64800e-12
      5283.23  7.57750e-12
      5285.97  7.78900e-12
      5288.71  7.97420e-12
      5291.45  8.07880e-12
      5294.19  8.02970e-12
      5296.93  7.76790e-12
      5299.67  7.62840e-12
      5302.41  7.77440e-12
      5305.15  7.97220e-12
      5307.89  8.02460e-12
      5310.63  8.07600e-12
      5313.37  8.07580e-12
      5316.11  7.94270e-12
      5318.85  7.88110e-12
      5321.59  7.86420e-12
      5324.33  7.53620e-12
      5327.07  7.30540e-12
      5329.81  7.15120e-12
      5332.55  7.59330e-12
      5335.29  7.81040e-12
      5338.03  7.80150e-12
      5340.77  7.58030e-12
      5343.51  7.65240e-12
      5346.25  7.73800e-12
      5348.99  7.77510e-12
      5351.73  7.82140e-12
      5354.47  8.02030e-12
      5357.21  8.13930e-12
      5359.95  8.03530e-12
      5362.69  7.85950e-12
      5365.42  7.62080e-12
      5368.16  7.49930e-12
      5370.90  7.38750e-12
      5373.64  7.57600e-12
      5376.38  7.79740e-12
      5379.12  7.87940e-12
      5381.86  7.72770e-12
      5384.60  7.71410e-12
      5387.34  7.77240e-12
      5390.08  7.67900e-12
      5392.82  7.52640e-12
      5395.56  7.44410e-12
      5398.30  7.42840e-12
      5401.03  7.43920e-12
      5403.77  7.30240e-12
      5406.51  7.13340e-12
      5409.25  7.34390e-12
      5411.99  7.41510e-12
      5414.73  7.50680e-12
      5417.47  7.57020e-12
      5420.21  7.59080e-12
      5422.95  7.56420e-12
      5425.68  7.54050e-12
      5428.42  7.58130e-12
      5431.16  7.47390e-12
      5433.90  7.52130e-12
      5436.64  7.55420e-12
      5439.38  7.83110e-12
      5442.12  7.88070e-12
      5444.85  7.66520e-12
      5447.59  7.53150e-12
      5450.62  7.54050e-12
      5455.49  7.52700e-12
      5460.36  7.57160e-12
      5465.23  7.58140e-12
      5470.10  7.57300e-12
      5474.98  7.47350e-12
      5479.85  7.39650e-12
      5484.72  7.43050e-12
      5489.59  7.54030e-12
      5494.46  7.57780e-12
      5499.33  7.56870e-12
      5504.21  7.43510e-12
      5509.08  7.52040e-12
      5513.95  7.51970e-12
      5518.82  7.54030e-12
      5523.70  7.60340e-12
      5528.57  7.49250e-12
      5533.44  7.48900e-12
      5538.31  7.46290e-12
      5543.18  7.48820e-12
      5548.06  7.58450e-12
      5552.93  7.63240e-12
      5557.80  7.53810e-12
      5562.67  7.48340e-12
      5567.55  7.32330e-12
      5572.42  7.29950e-12
      5577.29  7.33160e-12
      5582.17  7.35840e-12
      5587.04  7.21820e-12
      5591.91  7.04970e-12
      5596.78  7.15040e-12
      5601.66  7.20260e-12
      5606.53  7.34180e-12
      5611.40  7.45020e-12
      5616.28  7.31070e-12
      5621.15  7.27110e-12
      5626.02  7.33980e-12
      5630.90  7.42870e-12
      5635.77  7.36280e-12
      5640.64  7.34910e-12
      5645.52  7.33930e-12
      5650.39  7.36460e-12
      5655.26  7.24640e-12
      5660.14  7.14100e-12
      5665.01  7.20300e-12
      5669.89  7.30920e-12
      5674.76  7.39690e-12
      5679.63  7.40140e-12
      5684.51  7.30800e-12
      5689.38  7.24460e-12
      5694.25  7.30370e-12
      5699.13  7.29500e-12
      5704.00  7.22540e-12
      5708.88  7.05700e-12
      5713.75  7.07960e-12
      5718.63  7.31260e-12
      5723.50  7.44800e-12
      5728.37  7.50760e-12
      5733.25  7.45890e-12
      5738.12  7.46630e-12
      5743.00  7.45680e-12
      5747.87  7.43550e-12
      5752.75  7.30720e-12
      5757.62  7.25780e-12
      5762.50  7.27600e-12
      5767.37  7.36640e-12
      5772.25  7.39140e-12
      5777.12  7.31820e-12
      5782.00  7.23260e-12
      5786.87  7.15990e-12
      5791.75  7.23440e-12
      5796.62  7.31680e-12
      5801.50  7.32610e-12
      5806.37  7.29190e-12
      5811.25  7.31030e-12
      5816.12  7.32420e-12
      5821.00  7.33760e-12
      5825.87  7.35250e-12
      5830.75  7.39080e-12
      5835.62  7.35070e-12
      5840.50  7.33220e-12
      5845.37  7.34700e-12
      5850.25  7.28530e-12
      5855.12  7.20150e-12
      5860.00  7.09710e-12
      5864.88  7.10810e-12
      5869.75  7.25720e-12
      5874.63  7.31130e-12
      5879.50  7.28460e-12
      5884.38  7.13230e-12
      5889.26  6.85810e-12
      5894.13  6.62780e-12
      5899.01  6.73150e-12
      5903.88  7.04330e-12
      5908.76  7.17680e-12
      5913.64  7.19640e-12
      5918.51  7.17460e-12
      5923.39  7.21770e-12
      5928.26  7.17230e-12
      5933.14  7.09510e-12
      5938.02  7.15200e-12
      5942.89  7.18790e-12
      5947.77  7.15180e-12
      5952.65  7.09790e-12
      5957.52  7.11740e-12
      5962.40  7.14780e-12
      5967.28  7.19990e-12
      5972.15  7.18910e-12
      5977.03  7.09800e-12
      5981.91  7.02890e-12
      5986.78  7.00630e-12
      5991.66  7.02960e-12
      5996.54  7.01970e-12
      6001.41  6.96190e-12
      6006.29  6.96750e-12
      6011.17  6.92600e-12
      6016.05  6.92360e-12
      6020.92  6.88070e-12
      6025.80  6.84160e-12
      6030.68  6.97080e-12
      6035.55  7.02560e-12
      6040.43  7.06990e-12
      6045.31  7.04860e-12
      6050.19  7.07090e-12
      6055.06  6.96920e-12
      6059.94  6.95340e-12
      6064.82  6.97030e-12
      6069.70  6.93430e-12
      6074.57  7.01910e-12
      6079.45  6.92640e-12
      6084.33  6.89960e-12
      6089.21  6.84390e-12
      6094.08  6.83920e-12
      6098.96  6.82660e-12
      6103.84  6.75340e-12
      6108.72  6.81030e-12
      6113.60  6.82440e-12
      6118.47  6.71910e-12
      6123.35  6.73370e-12
      6128.23  6.72630e-12
      6133.11  6.71090e-12
      6137.99  6.66760e-12
      6142.86  6.64340e-12
      6147.74  6.69600e-12
      6152.62  6.66320e-12
      6157.50  6.62660e-12
      6162.38  6.49950e-12
      6167.26  6.46660e-12
      6172.13  6.52770e-12
      6177.01  6.69380e-12
      6181.89  6.72550e-12
      6186.77  6.71190e-12
      6191.65  6.68830e-12
      6196.53  6.75020e-12
      6201.41  6.76950e-12
      6206.28  6.81020e-12
      6211.16  6.75730e-12
      6216.04  6.66170e-12
      6220.92  6.60710e-12
      6225.80  6.61940e-12
      6230.68  6.58300e-12
      6235.56  6.60230e-12
      6240.44  6.61010e-12
      6245.32  6.48280e-12
      6250.19  6.47240e-12
      6255.07  6.46560e-12
      6259.95  6.49770e-12
      6264.83  6.52210e-12
      6269.71  6.59190e-12
      6274.59  6.67420e-12
      6279.47  6.66310e-12
      6284.35  6.61570e-12
      6289.23  6.66220e-12
      6294.11  6.62250e-12
      6298.99  6.59970e-12
      6303.87  6.49770e-12
      6308.75  6.48380e-12
      6313.62  6.46210e-12
      6318.50  6.36710e-12
      6323.38  6.37150e-12
      6328.26  6.38230e-12
      6333.14  6.34610e-12
      6338.02  6.29220e-12
      6342.90  6.35850e-12
      6347.78  6.42780e-12
      6352.66  6.45930e-12
      6357.54  6.46560e-12
      6362.42  6.39220e-12
      6367.30  6.39150e-12
      6372.18  6.44120e-12
      6377.06  6.48520e-12
      6381.94  6.48590e-12
      6386.82  6.50140e-12
      6391.70  6.48240e-12
      6396.58  6.39430e-12
      6401.46  6.30940e-12
      6406.34  6.32940e-12
      6411.22  6.23920e-12
      6416.10  6.25080e-12
      6420.98  6.28660e-12
      6425.86  6.34850e-12
      6430.74  6.34670e-12
      6435.62  6.34560e-12
      6440.50  6.31210e-12
      6445.38  6.34060e-12
      6450.27  6.29030e-12
      6455.15  6.27100e-12
      6460.03  6.26870e-12
      6464.91  6.23440e-12
      6469.79  6.30970e-12
      6474.67  6.30660e-12
      6479.55  6.31420e-12
      6484.43  6.28250e-12
      6489.31  6.30610e-12
      6494.19  6.14420e-12
      6499.07  6.09940e-12
      6503.95  6.20710e-12
      6508.83  6.26190e-12
      6513.71  6.30120e-12
      6518.60  6.27090e-12
      6523.48  6.24570e-12
      6528.36  6.21340e-12
      6533.24  6.23730e-12
      6538.12  6.24850e-12
      6543.00  6.18480e-12
      6547.88  6.06730e-12
      6552.76  5.93210e-12
      6557.64  5.54520e-12
      6562.52  5.20600e-12
      6567.41  5.28690e-12
      6572.29  5.60630e-12
      6577.17  5.85580e-12
      6582.05  6.03120e-12
      6586.93  6.06600e-12
      6591.81  6.09750e-12
      6596.69  6.01320e-12
      6601.58  6.10060e-12
      6606.46  6.11810e-12
      6611.34  6.13440e-12
      6616.22  6.16470e-12
      6621.10  6.17130e-12
      6625.98  6.16230e-12
      6630.86  6.12960e-12
      6635.75  6.04730e-12
      6640.63  6.06500e-12
      6645.51  6.06190e-12
      6650.39  6.11900e-12
      6655.27  6.12600e-12
      6660.15  6.12010e-12
      6665.04  6.08320e-12
      6669.92  6.08250e-12
      6674.80  6.12480e-12
      6679.68  6.05890e-12
      6684.56  6.11530e-12
      6689.45  6.11600e-12
      6694.33  6.10570e-12
      6699.21  6.07660e-12
      6704.09  6.02820e-12
      6708.97  6.00760e-12
      6713.86  5.95930e-12
      6718.74  5.94580e-12
      6723.62  5.93590e-12
      6728.50  5.96600e-12
      6733.38  6.01320e-12
      6738.27  6.00810e-12
      6743.15  5.99310e-12
      6748.03  5.98470e-12
      6752.91  5.95100e-12
      6757.80  5.96610e-12
      6762.68  5.98600e-12
      6767.56  5.94610e-12
      6772.44  5.94340e-12
      6777.33  5.96240e-12
      6782.21  5.95380e-12
      6787.09  5.91840e-12
      6791.97  5.91430e-12
      6796.86  5.92080e-12
      6801.74  5.94000e-12
      6806.62  5.91890e-12
      6811.50  5.92370e-12
      6816.39  5.94110e-12
      6821.27  5.89440e-12
      6826.15  5.88710e-12
      6831.03  5.89720e-12
      6835.92  5.83990e-12
      6840.80  5.77640e-12
      6845.68  5.74100e-12
      6850.56  5.79960e-12
      6855.45  5.78750e-12
      6860.33  5.75310e-12
      6865.21  5.77560e-12
      6870.10  5.83350e-12
      6874.98  5.83400e-12
      6879.86  5.83130e-12
      6884.75  5.76460e-12
      6889.63  5.80080e-12
      6894.51  5.82390e-12
      6899.39  5.82200e-12
      6904.28  5.80100e-12
      6909.16  5.77950e-12
      6914.04  5.76260e-12
      6918.93  5.67680e-12
      6923.81  5.72980e-12
      6928.69  5.72170e-12
      6933.58  5.75600e-12
      6938.46  5.73440e-12
      6943.34  5.71700e-12
      6948.23  5.71080e-12
      6953.11  5.68310e-12
      6957.99  5.69310e-12
      6962.88  5.72070e-12
      6967.76  5.73030e-12
      6972.64  5.67990e-12
      6977.53  5.60860e-12
      6982.41  5.57220e-12
      6987.29  5.65030e-12
      6992.18  5.64150e-12
      6997.06  5.65920e-12
      7001.94  5.57000e-12
      7006.83  5.51520e-12
      7011.71  5.50220e-12
      7016.59  5.51180e-12
      7021.48  5.47790e-12
      7026.36  5.49440e-12
      7031.24  5.50380e-12
      7036.13  5.51660e-12
      7041.01  5.53970e-12
      7045.89  5.57180e-12
      7050.78  5.59490e-12
      7055.66  5.57920e-12
      7060.55  5.56470e-12
      7065.43  5.57260e-12
      7070.31  5.53410e-12
      7075.20  5.48290e-12
      7080.08  5.53330e-12
      7084.96  5.50650e-12
      7089.85  5.43930e-12
      7094.73  5.45690e-12
      7099.62  5.49640e-12
      7104.50  5.48320e-12
      7109.38  5.50510e-12
      7114.27  5.45640e-12
      7119.15  5.45430e-12
      7124.04  5.44130e-12
      7128.92  5.45000e-12
      7133.80  5.40460e-12
      7138.69  5.45100e-12
      7143.57  5.43920e-12
      7148.46  5.39740e-12
      7153.34  5.41570e-12
      7158.22  5.44240e-12
      7163.11  5.39080e-12
      7167.99  5.35070e-12
      7172.88  5.37830e-12
      7177.76  5.36920e-12
      7182.64  5.29180e-12
      7187.53  5.26480e-12
      7192.41  5.23740e-12
      7197.30  5.25720e-12
      7202.18  5.26770e-12
      7207.06  5.29120e-12
      7211.95  5.27660e-12
      7216.83  5.31670e-12
      7221.72  5.28240e-12
      7226.60  5.26990e-12
      7231.49  5.30100e-12
      7236.37  5.31930e-12
      7241.25  5.32800e-12
      7246.14  5.29880e-12
      7251.02  5.29270e-12
      7255.91  5.27690e-12
      7260.79  5.28610e-12
      7265.68  5.27580e-12
      7270.56  5.29040e-12
      7275.45  5.28690e-12
      7280.33  5.23310e-12
      7285.21  5.13710e-12
      7290.10  5.12200e-12
      7294.98  5.13250e-12
      7299.87  5.19770e-12
      7304.75  5.21310e-12
      7309.64  5.16470e-12
      7314.52  5.19010e-12
      7319.41  5.22440e-12
      7324.29  5.18210e-12
      7329.17  5.14730e-12
      7334.06  5.19160e-12
      7338.94  5.21530e-12
      7343.83  5.22930e-12
      7348.71  5.18150e-12
      7353.60  5.16430e-12
      7358.48  5.13540e-12
      7363.37  5.16110e-12
      7368.25  5.14930e-12
      7373.14  5.14810e-12
      7378.02  5.12990e-12
      7382.91  5.10380e-12
      7387.79  5.00990e-12
      7392.67  5.00380e-12
      7397.56  5.02680e-12
      7402.44  5.05800e-12
      7407.33  5.00660e-12
      7412.21  4.95060e-12
      7417.10  4.94640e-12
      7421.98  4.97630e-12
      7426.87  4.99850e-12
      7431.75  5.04150e-12
      7436.64  5.05350e-12
      7441.52  5.03630e-12
      7446.41  5.01250e-12
      7451.29  5.01380e-12
      7456.18  5.04990e-12
      7461.06  5.03720e-12
      7465.95  5.03610e-12
      7470.83  5.03680e-12
      7475.72  5.04590e-12
      7480.60  5.03930e-12
      7485.49  5.03010e-12
      7490.37  5.00400e-12
      7495.26  4.97220e-12
      7500.14  4.95450e-12
      7505.03  4.97230e-12
      7509.91  4.93630e-12
      7514.80  4.92520e-12
      7519.68  4.96840e-12
      7524.57  4.95360e-12
      7529.45  4.92460e-12
      7534.34  4.94230e-12
      7539.22  4.95850e-12
      7544.11  4.97650e-12
      7548.99  4.94930e-12
      7553.88  4.91740e-12
      7558.76  4.91300e-12
      7563.65  4.92110e-12
      7568.53  4.90630e-12
      7573.42  4.88410e-12
      7578.30  4.91120e-12
      7583.19  4.89040e-12
      7588.07  4.88540e-12
      7592.96  4.92520e-12
      7597.84  4.89660e-12
      7602.73  4.89740e-12
      7607.61  4.85020e-12
      7612.50  4.86030e-12
      7617.38  4.81550e-12
      7622.27  4.82190e-12
      7627.15  4.85530e-12
      7632.04  4.87630e-12
      7636.92  4.90560e-12
      7641.81  4.86900e-12
      7646.69  4.87210e-12
      7651.58  4.83140e-12
      7656.46  4.76150e-12
      7661.35  4.68640e-12
      7666.23  4.67940e-12
      7671.12  4.74330e-12
      7676.00  4.83270e-12
      7680.89  4.80230e-12
      7685.77  4.79250e-12
      7690.66  4.78580e-12
      7695.54  4.75770e-12
      7700.43  4.74640e-12
      7705.31  4.78140e-12
      7710.20  4.77350e-12
      7715.08  4.71290e-12
      7719.97  4.72070e-12
      7724.85  4.73130e-12
      7729.74  4.75770e-12
      7734.62  4.77630e-12
      7739.51  4.76300e-12
      7744.40  4.71860e-12
      7749.28  4.67490e-12
      7754.17  4.70870e-12
      7759.05  4.73990e-12
      7763.94  4.76260e-12
      7768.82  4.76390e-12
      7773.71  4.70390e-12
      7778.59  4.67960e-12
      7783.48  4.70190e-12
      7788.36  4.66070e-12
      7793.25  4.70220e-12
      7798.13  4.69220e-12
      7803.02  4.67190e-12
      7807.90  4.70360e-12
      7812.79  4.67930e-12
      7817.67  4.70650e-12
      7822.56  4.72860e-12
      7827.44  4.69950e-12
      7832.33  4.66120e-12
      7837.21  4.58810e-12
      7842.10  4.64470e-12
      7846.98  4.63440e-12
      7851.87  4.61970e-12
      7856.76  4.63860e-12
      7861.64  4.66720e-12
      7866.53  4.67490e-12
      7871.41  4.66710e-12
      7876.30  4.64300e-12
      7881.18  4.60930e-12
      7886.07  4.60210e-12
      7890.95  4.64390e-12
      7895.84  4.63300e-12
      7900.72  4.65700e-12
      7905.61  4.66800e-12
      7910.49  4.59620e-12
      7915.38  4.52930e-12
      7920.26  4.52810e-12
      7925.15  4.53420e-12
      7930.03  4.53110e-12
      7934.92  4.44950e-12
      7939.80  4.46130e-12
      7944.69  4.44620e-12
      7949.57  4.44680e-12
      7954.46  4.53290e-12
      7959.35  4.52430e-12
      7964.23  4.53160e-12
      7969.12  4.53830e-12
      7974.00  4.49770e-12
      7978.89  4.55350e-12
      7983.77  4.56500e-12
      7988.66  4.54680e-12
      7993.54  4.52720e-12
      7998.43  4.48400e-12
      8003.31  4.45320e-12
      8008.20  4.47010e-12
      8013.08  4.49300e-12
      8017.97  4.48360e-12
      8022.85  4.52160e-12
      8027.74  4.45910e-12
      8032.62  4.44410e-12
      8037.51  4.44590e-12
      8042.39  4.42120e-12
      8047.28  4.39150e-12
      8052.16  4.35310e-12
      8057.05  4.41220e-12
      8061.93  4.41840e-12
      8066.82  4.43190e-12
      8071.70  4.41500e-12
      8076.59  4.38870e-12
      8081.47  4.36890e-12
      8086.36  4.33970e-12
      8091.24  4.33700e-12
      8096.13  4.32600e-12
      8101.01  4.32290e-12
      8105.90  4.34360e-12
      8110.78  4.36890e-12
      8115.67  4.40250e-12
      8120.55  4.37470e-12
      8125.44  4.40180e-12
      8130.33  4.36650e-12
      8135.21  4.37580e-12
      8140.10  4.33960e-12
      8144.98  4.32450e-12
      8149.87  4.31850e-12
      8154.75  4.32620e-12
      8159.64  4.34310e-12
      8164.52  4.36210e-12
      8169.41  4.33390e-12
      8174.29  4.29800e-12
      8179.18  4.29130e-12
      8184.06  4.23710e-12
      8188.95  4.19510e-12
      8193.83  4.23090e-12
      8198.71  4.16210e-12
      8203.60  4.18500e-12
      8208.49  4.20200e-12
      8213.37  4.18000e-12
      8218.25  4.17280e-12
      8223.14  4.18340e-12
      8228.02  4.21490e-12
      8232.91  4.25030e-12
      8237.79  4.19030e-12
      8242.68  4.20360e-12
      8247.56  4.20460e-12
      8252.45  4.22290e-12
      8257.33  4.25360e-12
      8262.22  4.24490e-12
      8267.10  4.21600e-12
      8271.99  4.21850e-12
      8276.87  4.20520e-12
      8281.76  4.21670e-12
      8286.64  4.22160e-12
      8291.53  4.19280e-12
      8296.41  4.14770e-12
      8301.30  4.17590e-12
      8306.18  4.19560e-12
      8311.07  4.14470e-12
      8315.95  4.13030e-12
      8320.84  4.16750e-12
      8325.72  4.10920e-12
      8330.61  4.07510e-12
      8335.49  4.04580e-12
      8340.38  4.05020e-12
      8345.26  4.05360e-12
      8350.14  4.05780e-12
      8355.03  4.11230e-12
      8359.91  4.09930e-12
      8364.80  4.09810e-12
      8369.68  4.08810e-12
      8374.57  4.10170e-12
      8379.45  4.12480e-12
      8384.34  4.12800e-12
      8389.22  4.08230e-12
      8394.11  4.08640e-12
      8398.99  4.10300e-12
      8403.87  4.10310e-12
      8408.76  4.08280e-12
      8413.64  4.08100e-12
      8418.53  4.06670e-12
      8423.41  4.05820e-12
      8428.30  4.05530e-12
      8433.18  4.04930e-12
      8438.07  4.03150e-12
      8442.95  4.00050e-12
      8447.83  3.97370e-12
      8452.72  3.99210e-12
      8457.60  4.01900e-12
      8462.49  4.05280e-12
      8467.37  4.01340e-12
      8472.26  4.00140e-12
      8477.14  4.02440e-12
      8482.03  4.00290e-12
      8486.91  3.96430e-12
      8491.79  3.91790e-12
      8496.68  3.84350e-12
      8501.56  3.66000e-12
      8506.45  3.77720e-12
      8511.33  3.89980e-12
      8516.21  3.89330e-12
      8521.10  3.90150e-12
      8525.98  3.88010e-12
      8530.87  3.80100e-12
      8535.75  3.71000e-12
      8540.64  3.47180e-12
      8545.52  3.42820e-12
      8550.40  3.47220e-12
      8555.29  3.72950e-12
      8560.17  3.79350e-12
      8565.06  3.88240e-12
      8569.94  3.92540e-12
      8574.82  3.94640e-12
      8579.71  3.94640e-12
      8584.59  3.91800e-12
      8589.48  3.90070e-12
      8594.36  3.89840e-12
      8599.24  3.87700e-12
      8604.13  3.87920e-12
      8609.01  3.88170e-12
      8613.90  3.86690e-12
      8618.78  3.84470e-12
      8623.66  3.86320e-12
      8628.55  3.87540e-12
      8633.43  3.88170e-12
      8638.31  3.84710e-12
      8643.20  3.83480e-12
      8648.08  3.80290e-12
      8652.97  3.70010e-12
      8657.85  3.62860e-12
      8662.73  3.37800e-12
      8667.62  3.37870e-12
      8672.50  3.58460e-12
      8677.38  3.64560e-12
      8682.27  3.71540e-12
      8687.15  3.74430e-12
      8692.03  3.74300e-12
      8696.92  3.79000e-12
      8701.80  3.79660e-12
      8706.69  3.80300e-12
      8711.57  3.79230e-12
      8716.45  3.77020e-12
      8721.34  3.77290e-12
      8726.22  3.79810e-12
      8731.10  3.74830e-12
      8735.99  3.74720e-12
      8740.87  3.73570e-12
      8745.75  3.72050e-12
      8750.64  3.71690e-12
      8755.52  3.70470e-12
      8760.40  3.73590e-12
      8765.29  3.75860e-12
      8770.17  3.76290e-12
      8775.05  3.76060e-12
      8779.94  3.77120e-12
      8784.82  3.77660e-12
      8789.70  3.74060e-12
      8794.58  3.69910e-12
      8799.47  3.72250e-12
      8804.35  3.70290e-12
      8809.23  3.64240e-12
      8814.12  3.70440e-12
      8819.00  3.74990e-12
      8823.88  3.72190e-12
      8828.77  3.73970e-12
      8833.65  3.75410e-12
      8838.53  3.73450e-12
      8843.42  3.72740e-12
      8848.30  3.75020e-12
      8853.18  3.71450e-12
      8858.06  3.68960e-12
      8862.95  3.63170e-12
      8867.83  3.60230e-12
      8872.71  3.64650e-12
      8877.59  3.68880e-12
      8882.48  3.68750e-12
      8887.36  3.68800e-12
      8892.24  3.69520e-12
      8897.12  3.67160e-12
      8902.01  3.66300e-12
      8906.89  3.65980e-12
      8911.77  3.67610e-12
      8916.66  3.66030e-12
      8921.54  3.67130e-12
      8926.42  3.64220e-12
      8931.30  3.62920e-12
      8936.19  3.63990e-12
      8941.07  3.62260e-12
      8945.95  3.60860e-12
      8950.83  3.59480e-12
      8955.71  3.63520e-12
      8960.60  3.69330e-12
      8965.48  3.67430e-12
      8970.36  3.64260e-12
      8975.24  3.60840e-12
      8980.13  3.61480e-12
      8985.01  3.63960e-12
      8989.89  3.62690e-12
      8994.77  3.64270e-12
      8999.66  3.55270e-12
      9004.54  3.54780e-12
      9009.42  3.48980e-12
      9014.30  3.42710e-12
      9019.18  3.46940e-12
      9024.07  3.51640e-12
      9028.95  3.54800e-12
      9033.83  3.57770e-12
      9038.71  3.61330e-12
      9043.59  3.59190e-12
      9048.47  3.57670e-12
      9053.36  3.55450e-12
      9058.24  3.54280e-12
      9063.12  3.49010e-12
      9068.00  3.51850e-12
      9072.88  3.55870e-12
      9077.77  3.54880e-12
      9082.65  3.52940e-12
      9087.53  3.49770e-12
      9092.41  3.43010e-12
      9097.29  3.42390e-12
      9102.17  3.47510e-12
      9107.05  3.50320e-12
      9111.94  3.48900e-12
      9116.82  3.48920e-12
      9121.70  3.48680e-12
      9126.58  3.49380e-12
      9131.46  3.49460e-12
      9136.34  3.51250e-12
      9141.22  3.51330e-12
      9146.11  3.50280e-12
      9150.99  3.52190e-12
      9155.87  3.52550e-12
      9160.75  3.52580e-12
      9165.63  3.51450e-12
      9170.51  3.48020e-12
      9175.39  3.44630e-12
      9180.27  3.43240e-12
      9185.16  3.43380e-12
      9190.04  3.49260e-12
      9194.92  3.48050e-12
      9199.80  3.47250e-12
      9204.68  3.43320e-12
      9209.56  3.38300e-12
      9214.44  3.32130e-12
      9219.32  3.28350e-12
      9224.20  3.31700e-12
      9229.08  3.28640e-12
      9233.96  3.28540e-12
      9238.84  3.32220e-12
      9243.72  3.29450e-12
      9248.61  3.27760e-12
      9253.49  3.29100e-12
      9258.37  3.29180e-12
      9263.25  3.31110e-12
      9268.13  3.35830e-12
      9273.01  3.35470e-12
      9277.89  3.38570e-12
      9282.77  3.38310e-12
      9287.65  3.37240e-12
      9292.53  3.40810e-12
      9297.41  3.39490e-12
      9302.29  3.38880e-12
      9307.17  3.40350e-12
      9312.05  3.36900e-12
      9316.93  3.34630e-12
      9321.81  3.31900e-12
      9326.69  3.33880e-12
      9331.57  3.36160e-12
      9336.45  3.34100e-12
      9341.33  3.35160e-12
      9346.21  3.32030e-12
      9351.09  3.31090e-12
      9355.97  3.30740e-12
      9360.85  3.33680e-12
      9365.73  3.32520e-12
      9370.61  3.33190e-12
      9375.49  3.31910e-12
      9380.37  3.30240e-12
      9385.25  3.29580e-12
      9390.13  3.29140e-12
      9395.01  3.28370e-12
      9399.89  3.27690e-12
      9404.77  3.25040e-12
      9409.65  3.20310e-12
      9414.53  3.18280e-12
      9419.41  3.13280e-12
      9424.28  3.16470e-12
      9429.16  3.20680e-12
      9434.04  3.18770e-12
      9438.92  3.21620e-12
      9443.80  3.22380e-12
      9448.68  3.23490e-12
      9453.56  3.22960e-12
      9458.44  3.22960e-12
      9463.32  3.24210e-12
      9468.20  3.25270e-12
      9473.08  3.27590e-12
      9477.96  3.26190e-12
      9482.83  3.27480e-12
      9487.71  3.24100e-12
      9492.59  3.22850e-12
      9497.47  3.21920e-12
      9502.35  3.20800e-12
      9507.23  3.19730e-12
      9512.11  3.20530e-12
      9516.99  3.20580e-12
      9521.86  3.18460e-12
      9526.74  3.15010e-12
      9531.62  3.15570e-12
      9536.50  3.15670e-12
      9541.38  3.12640e-12
      9546.26  3.06990e-12
      9551.13  3.05200e-12
      9556.01  3.08240e-12
      9560.89  3.09420e-12
      9565.77  3.13790e-12
      9570.65  3.15330e-12
      9575.53  3.14130e-12
      9580.40  3.13410e-12
      9585.28  3.13600e-12
      9590.16  3.15360e-12
      9595.04  3.13920e-12
      9599.92  3.16880e-12
      9604.79  3.13240e-12
      9609.67  3.13330e-12
      9614.55  3.13380e-12
      9619.43  3.16280e-12
      9624.31  3.11420e-12
      9629.18  3.10310e-12
      9634.06  3.11530e-12
      9638.94  3.08820e-12
      9643.82  3.09860e-12
      9648.69  3.08160e-12
      9653.57  3.07360e-12
      9658.45  3.05430e-12
      9663.33  3.05620e-12
      9668.20  3.09180e-12
      9673.08  3.08690e-12
      9677.96  3.07110e-12
      9682.84  3.06930e-12
      9687.71  3.07950e-12
      9692.59  3.07640e-12
      9697.47  3.10060e-12
      9702.34  3.11150e-12
      9707.22  3.09840e-12
      9712.10  3.06250e-12
      9716.98  3.04690e-12
      9721.85  3.03760e-12
      9726.73  3.01510e-12
      9731.61  3.04960e-12
      9736.48  3.05060e-12
      9741.36  3.01380e-12
      9746.24  3.02510e-12
      9751.11  3.01030e-12
      9755.99  3.04040e-12
      9760.87  3.04330e-12
      9765.74  3.02490e-12
      9770.62  3.01770e-12
      9775.50  3.04020e-12
      9780.37  3.04530e-12
      9785.25  3.02110e-12
      9790.12  3.04790e-12
      9795.00  3.02260e-12
      9799.88  3.01960e-12
      9804.75  3.03610e-12
      9809.63  3.04910e-12
      9814.51  3.02090e-12
      9819.38  2.99380e-12
      9824.26  2.98310e-12
      9829.13  2.97400e-12
      9834.01  2.97980e-12
      9838.89  2.99740e-12
      9843.76  2.98870e-12
      9848.64  2.99820e-12
      9853.51  3.01560e-12
      9858.39  3.00060e-12
      9863.26  2.99710e-12
      9868.14  2.96600e-12
      9873.01  2.96690e-12
      9877.89  2.96470e-12
      9882.77  3.00890e-12
      9887.64  2.95350e-12
      9892.52  2.96450e-12
      9897.39  2.94830e-12
      9902.27  2.97190e-12
      9907.14  2.94870e-12
      9912.02  2.93850e-12
      9916.89  2.92410e-12
      9921.77  2.91670e-12
      9926.64  2.94400e-12
      9931.52  2.93950e-12
      9936.39  2.94210e-12
      9941.27  2.91780e-12
      9946.14  2.92820e-12
      9951.02  2.94270e-12
      9955.89  2.91980e-12
      9960.77  2.92760e-12
      9965.64  2.92740e-12
      9970.52  2.90730e-12
      9975.39  2.91060e-12
      9980.26  2.92070e-12
      9985.14  2.92110e-12
      9990.01  2.91400e-12
      9994.89  2.88710e-12
      9999.76  2.92440e-12
      10004.6  2.91300e-12
      10009.5  2.92830e-12
      10014.4  2.91450e-12
      10019.3  2.91910e-12
      10024.1  2.88690e-12
      10029.0  2.86900e-12
      10033.9  2.82940e-12
      10038.8  2.81220e-12
      10043.6  2.79150e-12
      10048.5  2.75980e-12
      10053.4  2.71430e-12
      10058.2  2.74320e-12
      10063.1  2.78640e-12
      10068.0  2.78010e-12
      10072.9  2.80450e-12
      10077.7  2.81480e-12
      10082.6  2.82990e-12
      10087.5  2.82930e-12
      10092.4  2.83260e-12
      10097.2  2.83040e-12
      10102.1  2.81320e-12
      10107.0  2.81680e-12
      10111.9  2.81850e-12
      10116.7  2.84260e-12
      10125.0  2.81650e-12
      10175.0  2.76444e-12
      10225.0  2.75170e-12
      10275.0  2.73772e-12
      10325.0  2.68890e-12
      10375.0  2.66345e-12
      10425.0  2.64367e-12
      10475.0  2.60218e-12
      10525.0  2.58908e-12
      10575.0  2.55444e-12
      10625.0  2.52638e-12
      10675.0  2.46412e-12
      10725.0  2.45339e-12
      10775.0  2.43423e-12
      10825.0  2.38511e-12
      10875.0  2.36725e-12
      10925.0  2.30239e-12
      10975.0  2.29435e-12
      11025.0  2.30666e-12
      11075.0  2.29565e-12
      11125.0  2.26673e-12
      11175.0  2.24326e-12
      11225.0  2.22784e-12
      11275.0  2.17922e-12
      11325.0  2.16994e-12
      11375.0  2.15119e-12
      11425.0  2.11745e-12
      11475.0  2.13349e-12
      11525.0  2.11140e-12
      11575.0  2.08283e-12
      11625.0  2.03691e-12
      11675.0  2.02816e-12
      11725.0  2.03339e-12
      11775.0  1.98609e-12
      11825.0  1.97019e-12
      11875.0  1.94506e-12
      11925.0  1.96156e-12
      11975.0  1.89706e-12
      12025.0  1.90391e-12
      12075.0  1.87759e-12
      12125.0  1.87617e-12
      12175.0  1.87575e-12
      12225.0  1.85577e-12
      12275.0  1.83272e-12
      12325.0  1.81850e-12
      12375.0  1.80521e-12
      12425.0  1.78108e-12
      12475.0  1.77398e-12
      12525.0  1.75179e-12
      12575.0  1.73466e-12
      12625.0  1.71887e-12
      12675.0  1.70079e-12
      12725.0  1.69569e-12
      12775.0  1.67750e-12
      12825.0  1.56680e-12
      12875.0  1.63900e-12
      12925.0  1.62770e-12
      12975.0  1.62081e-12
      13025.0  1.59789e-12
      13075.0  1.59378e-12
      13125.0  1.56233e-12
      13175.0  1.55337e-12
      13225.0  1.55158e-12
      13275.0  1.52622e-12
      13325.0  1.51776e-12
      13375.0  1.50590e-12
      13425.0  1.49773e-12
      13475.0  1.48519e-12
      13525.0  1.46974e-12
      13575.0  1.44718e-12
      13625.0  1.44133e-12
      13675.0  1.42599e-12
      13725.0  1.41569e-12
      13775.0  1.40252e-12
      13825.0  1.39477e-12
      13875.0  1.38653e-12
      13925.0  1.37520e-12
      13975.0  1.36461e-12
      14025.0  1.34108e-12
      14075.0  1.34008e-12
      14125.0  1.31600e-12
      14175.0  1.31521e-12
      14225.0  1.28875e-12
      14275.0  1.27260e-12
      14325.0  1.27610e-12
      14375.0  1.27080e-12
      14425.0  1.23476e-12
      14475.0  1.24662e-12
      14525.0  1.22394e-12
      14570.0  1.22370e-12
      14620.0  1.21303e-12
      14675.0  1.20654e-12
      14725.0  1.18244e-12
      14775.0  1.17604e-12
      14825.0  1.17179e-12
      14875.0  1.14347e-12
      14925.0  1.16516e-12
      14975.0  1.14690e-12
      15025.0  1.11554e-12
      15075.0  1.11132e-12
      15125.0  1.12197e-12
      15175.0  1.11506e-12
      15225.0  1.09946e-12
      15275.0  1.09716e-12
      15325.0  1.08421e-12
      15375.0  1.07934e-12
      15425.0  1.06800e-12
      15475.0  1.06023e-12
      15525.0  1.04789e-12
      15575.0  1.03430e-12
      15625.0  1.03678e-12
      15675.0  1.01501e-12
      15725.0  1.00763e-12
      15775.0  9.80135e-13
      15825.0  9.90035e-13
      15875.0  9.48740e-13
      15925.0  9.65762e-13
      15975.0  9.71592e-13
      16050.0  9.55375e-13
      16150.0  9.24994e-13
      16250.0  9.34893e-13
      16350.0  9.04304e-13
      16450.0  8.73042e-13
      16550.0  8.82589e-13
      16650.0  8.66574e-13
      16750.0  8.34449e-13
      16850.0  8.02917e-13
      16950.0  8.18778e-13
      17050.0  7.94375e-13
      17150.0  7.81757e-13
      17250.0  7.58851e-13
      17350.0  7.14354e-13
      17450.0  7.26777e-13
      17550.0  7.20066e-13
      17650.0  7.05675e-13
      17750.0  6.92503e-13
      17850.0  6.80403e-13
      17950.0  6.68051e-13
      18050.0  6.52690e-13
      18150.0  6.16776e-13
      18250.0  6.21214e-13
      18350.0  6.15471e-13
      18450.0  5.99740e-13
      18550.0  5.92253e-13
      18650.0  5.75211e-13
      18750.0  5.38475e-13
      18850.0  5.55126e-13
      18950.0  5.36972e-13
      19050.0  5.39745e-13
      19150.0  5.29118e-13
      19250.0  5.18088e-13
      19350.0  5.05124e-13
      19450.0  4.74735e-13
      19550.0  4.89362e-13
      19650.0  4.80394e-13
      19750.0  4.70918e-13
      19850.0  4.64207e-13
      19950.0  4.56718e-13
      20050.0  4.50785e-13
      20150.0  4.44424e-13
      20250.0  4.32649e-13
      20350.0  4.23789e-13
      20450.0  4.21127e-13
      20550.0  4.12443e-13
      20650.0  4.03200e-13
      20750.0  3.98309e-13
      20850.0  3.91017e-13
      20950.0  3.82015e-13
      21050.0  3.78977e-13
      21150.0  3.71151e-13
      21250.0  3.64470e-13
      21350.0  3.59841e-13
      21450.0  3.54177e-13
      21550.0  3.47956e-13
      21650.0  3.26653e-13
      21750.0  3.33498e-13
      21850.0  3.28984e-13
      21950.0  3.26162e-13
      22050.0  3.17780e-13
      22150.0  3.14788e-13
      22250.0  3.09402e-13
      22350.0  3.04614e-13
      22450.0  2.99315e-13
      22550.0  2.93916e-13
      22650.0  2.89149e-13
      22750.0  2.85668e-13
      22850.0  2.79455e-13
      22950.0  2.73379e-13
      23050.0  2.71367e-13
      23150.0  2.66604e-13
      23250.0  2.59058e-13
      23350.0  2.56751e-13
      23450.0  2.54875e-13
      23550.0  2.46289e-13
      23650.0  2.45740e-13
      23750.0  2.41276e-13
      23850.0  2.34285e-13
      23950.0  2.33999e-13
      24050.0  2.31271e-13
      24150.0  2.24276e-13
      24250.0  2.23035e-13
      24350.0  2.19694e-13
      24450.0  2.15780e-13
      24550.0  2.11013e-13
      24650.0  2.10533e-13
      24750.0  2.06387e-13
      24850.0  2.01568e-13
      24950.0  2.00954e-13
      25050.0  1.98639e-13
      25150.0  1.94637e-13
      25250.0  1.93082e-13
      25350.0  1.90149e-13
      25450.0  1.86240e-13
      25550.0  1.83702e-13
      25650.0  1.80934e-13
      25750.0  1.80138e-13
      25850.0  1.74879e-13
      25950.0  1.74461e-13
      26050.0  1.72445e-13
      26150.0  1.68794e-13
      26250.0  1.60007e-13
      26350.0  1.64449e-13
      26450.0  1.61821e-13
      26550.0  1.60072e-13
      26650.0  1.56461e-13
      26750.0  1.55099e-13
      26850.0  1.54680e-13
      26950.0  1.52457e-13
      27050.0  1.50494e-13
      27150.0  1.48445e-13
      27250.0  1.46374e-13
      27350.0  1.44589e-13
      27450.0  1.42782e-13
      27550.0  1.38746e-13
      27650.0  1.37896e-13
      27750.0  1.36673e-13
      27850.0  1.35095e-13
      27950.0  1.33727e-13
      28050.0  1.31770e-13
      28150.0  1.30175e-13
      28250.0  1.28358e-13
      28350.0  1.26812e-13
      28450.0  1.24843e-13
      28550.0  1.23307e-13
      28650.0  1.21315e-13
      28750.0  1.18013e-13
      28850.0  1.18514e-13
      28950.0  1.17185e-13
      29050.0  1.15690e-13
      29150.0  1.14235e-13
      29250.0  1.12323e-13
      29350.0  1.11333e-13
      29450.0  1.09626e-13
      29550.0  1.08530e-13
      29650.0  1.07281e-13
      29750.0  1.05907e-13
      29850.0  1.04516e-13
      29950.0  1.02924e-13
      30050.0  1.01888e-13
      30150.0  1.00626e-13
      30250.0  9.93012e-14
      30350.0  9.63343e-14
      30450.0  9.60483e-14
      30550.0  9.56344e-14
      30650.0  9.43194e-14
      30750.0  9.34591e-14
      30850.0  9.20670e-14
      30950.0  9.10085e-14
      31050.0  9.01176e-14
      31150.0  8.81458e-14
      31250.0  8.78391e-14
      31350.0  8.69108e-14
      31450.0  8.57890e-14
      31550.0  8.44569e-14
      31650.0  8.35474e-14
      31750.0  8.27492e-14
      31850.0  8.18174e-14
      31950.0  8.06605e-14
      32100.0  7.92893e-14
      32300.0  7.75705e-14
      32500.0  7.56613e-14
      32700.0  7.39444e-14
      32900.0  7.12195e-14
      33100.0  7.01974e-14
      33300.0  6.87885e-14
      33500.0  6.74416e-14
      33700.0  6.57780e-14
      33900.0  6.42219e-14
      34100.0  6.27003e-14
      34300.0  6.15958e-14
      34500.0  6.04052e-14
      34700.0  5.89957e-14
      34900.0  5.77494e-14
      35100.0  5.65792e-14
      35300.0  5.52212e-14
      35500.0  5.40636e-14
      35700.0  5.29055e-14
      35900.0  5.17698e-14
      36100.0  5.08206e-14
      36300.0  4.97587e-14
      36500.0  4.84191e-14
      36700.0  4.74676e-14
      36900.0  4.60970e-14
      37100.0  4.50443e-14
      37300.0  4.43241e-14
      37500.0  4.27561e-14
      37700.0  4.26830e-14
      37900.0  4.18417e-14
      38100.0  4.10642e-14
      38300.0  4.03983e-14
      38500.0  3.96860e-14
      38700.0  3.87541e-14
      38900.0  3.79716e-14
      39100.0  3.73348e-14
      39300.0  3.66459e-14
      39500.0  3.57650e-14
      39700.0  3.51622e-14
      39900.0  3.42278e-14
      40100.0  3.36613e-14
      40300.0  3.31803e-14
      40500.0  3.20460e-14
      40700.0  3.18920e-14
      40900.0  3.13314e-14
      41100.0  3.08254e-14
      41300.0  3.02949e-14
      41500.0  2.96368e-14
      41700.0  2.90661e-14
      41900.0  2.85540e-14
      42100.0  2.78860e-14
      42300.0  2.75419e-14
      42500.0  2.69909e-14
      42700.0  2.65488e-14
      42900.0  2.58018e-14
      43100.0  2.51683e-14
      43300.0  2.48314e-14
      43500.0  2.40957e-14
      43700.0  2.35417e-14
      43900.0  2.33098e-14
      44100.0  2.25560e-14
      44300.0  2.23239e-14
      44500.0  2.19858e-14
      44700.0  2.13336e-14
      44900.0  2.11667e-14
      45100.0  2.07953e-14
      45300.0  2.02464e-14
      45500.0  2.00392e-14
      45700.0  1.97642e-14
      45900.0  1.92429e-14
      46100.0  1.90596e-14
      46300.0  1.87323e-14
      46500.0  1.83064e-14
      46700.0  1.80955e-14
      46900.0  1.79002e-14
      47100.0  1.76064e-14
      47300.0  1.74103e-14
      47500.0  1.71002e-14
      47700.0  1.68166e-14
      47900.0  1.65761e-14
      48100.0  1.62613e-14
      48300.0  1.61021e-14
      48500.0  1.58180e-14
      48700.0  1.55626e-14
      48900.0  1.53381e-14
      49100.0  1.51042e-14
      49300.0  1.48742e-14
      49500.0  1.46357e-14
      49700.0  1.44179e-14
      49900.0  1.42284e-14
      50100.0  1.39684e-14
      50300.0  1.38096e-14
      50500.0  1.35515e-14
      50700.0  1.33702e-14
      50900.0  1.31964e-14
      51100.0  1.29662e-14
      51300.0  1.27302e-14
      51500.0  1.26019e-14
      51700.0  1.24631e-14
      51900.0  1.22398e-14
      52100.0  1.20517e-14
      52300.0  1.18754e-14
      52500.0  1.17316e-14
      52700.0  1.15816e-14
      52900.0  1.13670e-14
      53100.0  1.12325e-14
      53300.0  1.10642e-14
      53500.0  1.09189e-14
      53700.0  1.07551e-14
      53900.0  1.06181e-14
      54100.0  1.04718e-14
      54300.0  1.02913e-14
      54500.0  1.01838e-14
      54700.0  1.00287e-14
      54900.0  9.88693e-15
      55100.0  9.76828e-15
      55300.0  9.65057e-15
      55500.0  9.48625e-15
      55700.0  9.39449e-15
      55900.0  9.22839e-15
      56100.0  9.12163e-15
      56300.0  8.99077e-15
      56500.0  8.89564e-15
      56700.0  8.77711e-15
      56900.0  8.63585e-15
      57100.0  8.54066e-15
      57300.0  8.43024e-15
      57500.0  8.31638e-15
      57700.0  8.20506e-15
      57900.0  8.10363e-15
      58100.0  7.99154e-15
      58300.0  7.89134e-15
      58500.0  7.79514e-15
      58700.0  7.68395e-15
      58900.0  7.57585e-15
      59100.0  7.45410e-15
      59300.0  7.39573e-15
      59500.0  7.27855e-15
      59700.0  7.21032e-15
      59900.0  7.11940e-15
      60100.0  7.02586e-15
      60300.0  6.94119e-15
      60500.0  6.85166e-15
      60700.0  6.76183e-15
      60900.0  6.67472e-15
      61100.0  6.58133e-15
      61300.0  6.51320e-15
      61500.0  6.43523e-15
      61700.0  6.35516e-15
      61900.0  6.27804e-15
      62100.0  6.20088e-15
      62300.0  6.10972e-15
      62500.0  6.04107e-15
      62700.0  5.96813e-15
      62900.0  5.89094e-15
      63100.0  5.81729e-15
      63300.0  5.76011e-15
      63500.0  5.68710e-15
      63700.0  5.61942e-15
      63900.0  5.54833e-15
      64200.0  5.45209e-15
      64600.0  5.31802e-15
      65000.0  5.19099e-15
      65400.0  5.07361e-15
      65800.0  4.95615e-15
      66200.0  4.83840e-15
      66600.0  4.72822e-15
      67000.0  4.61776e-15
      67400.0  4.50963e-15
      67800.0  4.40534e-15
      68200.0  4.30926e-15
      68600.0  4.21226e-15
      69000.0  4.11742e-15
      69400.0  4.02423e-15
      69800.0  3.93698e-15
      70200.0  3.84002e-15
      70600.0  3.76399e-15
      71000.0  3.68345e-15
      71400.0  3.60359e-15
      71800.0  3.52507e-15
      72200.0  3.44715e-15
      72600.0  3.37334e-15
      73000.0  3.30566e-15
      73400.0  3.22980e-15
      73800.0  3.16708e-15
      74200.0  3.09572e-15
      74600.0  3.00725e-15
      75000.0  2.95446e-15
      75400.0  2.90823e-15
      75800.0  2.85109e-15
      76200.0  2.79282e-15
      76600.0  2.73718e-15
      77000.0  2.67765e-15
      77400.0  2.62757e-15
      77800.0  2.57554e-15
      78200.0  2.52422e-15
      78600.0  2.47445e-15
      79000.0  2.42533e-15
      79400.0  2.37706e-15
      79800.0  2.33154e-15
      80200.0  2.28336e-15
      80600.0  2.23756e-15
      81000.0  2.19819e-15
      81400.0  2.15068e-15
      81800.0  2.11110e-15
      82200.0  2.07442e-15
      82600.0  2.03437e-15
      83000.0  1.99664e-15
      83400.0  1.95539e-15
      83800.0  1.92092e-15
      84200.0  1.88663e-15
      84600.0  1.85181e-15
      85000.0  1.81781e-15
      85400.0  1.78437e-15
      85800.0  1.75161e-15
      86200.0  1.71945e-15
      86600.0  1.68877e-15
      87000.0  1.65904e-15
      87400.0  1.62706e-15
      87800.0  1.59770e-15
      88200.0  1.56882e-15
      88600.0  1.53963e-15
      89000.0  1.51400e-15
      89400.0  1.48836e-15
      89800.0  1.45999e-15
      90200.0  1.43673e-15
      90600.0  1.41308e-15
      91000.0  1.38556e-15
      91400.0  1.36298e-15
      91800.0  1.34097e-15
      92200.0  1.31902e-15
      92600.0  1.29616e-15
      93000.0  1.27457e-15
      93400.0  1.25258e-15
      93800.0  1.23131e-15
      94200.0  1.21134e-15
      94600.0  1.19115e-15
      95000.0  1.17096e-15
      95400.0  1.15157e-15
      95800.0  1.13356e-15
      96200.0  1.11381e-15
      96600.0  1.09685e-15
      97000.0  1.07907e-15
      97400.0  1.05854e-15
      97800.0  1.04327e-15
      98200.0  1.02753e-15
      98600.0  1.01170e-15
      99000.0  9.96002e-16
      99400.0  9.79548e-16
      99800.0  9.64080e-16
      100200.  9.50771e-16
      100500.  9.36782e-16
      101000.  9.20254e-16
      101500.  9.02795e-16
      102000.  8.85460e-16
      102500.  8.68498e-16
      103000.  8.52019e-16
      103500.  8.36063e-16
      104000.  8.20434e-16
      104500.  8.05085e-16
      105000.  7.89338e-16
      105500.  7.75340e-16
      106000.  7.61018e-16
      106500.  7.46953e-16
      107000.  7.33321e-16
      107500.  7.20165e-16
      108000.  7.06848e-16
      108500.  6.94077e-16
      109000.  6.81537e-16
      109500.  6.69621e-16
      110000.  6.57595e-16
      110500.  6.45929e-16
      111000.  6.34561e-16
      111500.  6.23595e-16
      112000.  6.12480e-16
      112500.  6.02020e-16
      113000.  5.90564e-16
      113500.  5.81230e-16
      114000.  5.71317e-16
      114500.  5.61502e-16
      115000.  5.52107e-16
      115500.  5.42438e-16
      116000.  5.33473e-16
      116500.  5.24494e-16
      117000.  5.15798e-16
      117500.  5.07113e-16
      118000.  4.98713e-16
      118500.  4.90461e-16
      119000.  4.82268e-16
      119500.  4.74401e-16
      120000.  4.66575e-16
      120500.  4.59100e-16
      121000.  4.51687e-16
      121500.  4.44397e-16
      122000.  4.37210e-16
      122500.  4.30223e-16
      123000.  4.23249e-16
      123500.  4.16371e-16
      124000.  4.09749e-16
      124500.  4.03384e-16
      125000.  3.97157e-16
      125500.  3.91002e-16
      126000.  3.84858e-16
      126500.  3.78852e-16
      127000.  3.73043e-16
      127500.  3.67297e-16
      128000.  3.61481e-16
      128500.  3.56104e-16
      129000.  3.50612e-16
      129500.  3.45329e-16
      130000.  3.40152e-16
      130500.  3.34998e-16
      131000.  3.29988e-16
      131500.  3.25038e-16
      132000.  3.20188e-16
      132500.  3.15419e-16
      133000.  3.10750e-16
      133500.  3.06146e-16
      134000.  3.01666e-16
      134500.  2.97276e-16
      135000.  2.92939e-16
      135500.  2.88636e-16
      136000.  2.84496e-16
      136500.  2.80379e-16
      137000.  2.76318e-16
      137500.  2.72398e-16
      138000.  2.68520e-16
      138500.  2.64681e-16
      139000.  2.60939e-16
      139500.  2.57234e-16
      140000.  2.53625e-16
      140500.  2.50017e-16
      141000.  2.46549e-16
      141500.  2.43102e-16
      142000.  2.39670e-16
      142500.  2.36410e-16
      143000.  2.33153e-16
      143500.  2.29965e-16
      144000.  2.26804e-16
      144500.  2.23711e-16
      145000.  2.20694e-16
      145500.  2.17661e-16
      146000.  2.14738e-16
      146500.  2.11824e-16
      147000.  2.08995e-16
      147500.  2.06157e-16
      148000.  2.03423e-16
      148500.  2.00731e-16
      149000.  1.98070e-16
      149500.  1.95419e-16
      150000.  1.92841e-16
      150500.  1.90378e-16
      151000.  1.87871e-16
      151500.  1.85436e-16
      152000.  1.83029e-16
      152500.  1.80646e-16
      153000.  1.78322e-16
      153500.  1.76022e-16
      154000.  1.73769e-16
      154500.  1.71536e-16
      155000.  1.69361e-16
      155500.  1.67200e-16
      156000.  1.65080e-16
      156500.  1.62994e-16
      157000.  1.60955e-16
      157500.  1.58922e-16
      158000.  1.56935e-16
      158500.  1.54983e-16
      159000.  1.53070e-16
      159500.  1.51160e-16
      160000.  1.49287e-16
      160500.  1.47421e-16
      161000.  1.45641e-16
      161500.  1.43845e-16
      162000.  1.41918e-16
      162500.  1.40354e-16
      163000.  1.38679e-16
      163500.  1.36999e-16
      164000.  1.35336e-16
      164500.  1.33697e-16
      165000.  1.32098e-16
      165500.  1.30539e-16
      166000.  1.28977e-16
      166500.  1.27446e-16
      167000.  1.25937e-16
      167500.  1.24450e-16
      168000.  1.22968e-16
      168500.  1.21503e-16
      169000.  1.20044e-16
      169500.  1.18710e-16
      170000.  1.17332e-16
      170500.  1.15976e-16
      171000.  1.14624e-16
      171500.  1.13294e-16
      172000.  1.11987e-16
      172500.  1.10702e-16
      173000.  1.09431e-16
      173500.  1.08201e-16
      174000.  1.06969e-16
      174500.  1.05753e-16
      175000.  1.04557e-16
      175500.  1.03372e-16
      176000.  1.02209e-16
      176500.  1.01047e-16
      177000.  9.99210e-17
      177500.  9.88108e-17
      178000.  9.77199e-17
      178500.  9.66359e-17
      179000.  9.55687e-17
      179500.  9.45132e-17
      180000.  9.34724e-17
      180500.  9.24465e-17
      181000.  9.14398e-17
      181500.  9.04407e-17
      182000.  8.94533e-17
      182500.  8.84749e-17
      183000.  8.74755e-17
      183500.  8.65726e-17
      184000.  8.56443e-17
      184500.  8.47286e-17
      185000.  8.38198e-17
      185500.  8.29279e-17
      186000.  8.20298e-17
      186500.  8.11661e-17
      187000.  8.03100e-17
      187500.  7.94426e-17
      188000.  7.86247e-17
      188500.  7.77964e-17
      189000.  7.69844e-17
      189500.  7.61764e-17
      190000.  7.53704e-17
      190500.  7.42634e-17
      191000.  7.37983e-17
      191500.  7.30641e-17
      192000.  7.23094e-17
      192500.  7.15649e-17
      193000.  7.08318e-17
      193500.  7.01047e-17
      194000.  6.93871e-17
      194500.  6.86783e-17
      195000.  6.79830e-17
      195500.  6.72953e-17
      196000.  6.66109e-17
      196500.  6.59443e-17
      197000.  6.52784e-17
      197500.  6.46225e-17
      198000.  6.39766e-17
      198500.  6.33416e-17
      199000.  6.27077e-17
      199500.  6.20848e-17
      200000.  6.13179e-17
      201000.  6.02623e-17
      202000.  5.90853e-17
      203000.  5.79357e-17
      204000.  5.68153e-17
      205000.  5.57202e-17
      206000.  5.46519e-17
      207000.  5.36119e-17
      208000.  5.25913e-17
      209000.  5.15948e-17
      210000.  5.06236e-17
      211000.  4.96779e-17
      212000.  4.87523e-17
      213000.  4.78475e-17
      214000.  4.69648e-17
      215000.  4.61011e-17
      216000.  4.52570e-17
      217000.  4.44323e-17
      218000.  4.36259e-17
      219000.  4.28359e-17
      220000.  4.20708e-17
      221000.  4.13175e-17
      222000.  4.05819e-17
      223000.  3.98332e-17
      224000.  3.91495e-17
      225000.  3.84695e-17
      226000.  3.77945e-17
      227000.  3.71362e-17
      228000.  3.64910e-17
      229000.  3.58620e-17
      230000.  3.52439e-17
      231000.  3.46398e-17
      232000.  3.40504e-17
      233000.  3.34717e-17
      234000.  3.29048e-17
      235000.  3.23527e-17
      236000.  3.18101e-17
      237000.  3.12764e-17
      238000.  3.07564e-17
      239000.  3.02426e-17
      240000.  2.97489e-17
      241000.  2.92605e-17
      242000.  2.87800e-17
      243000.  2.83115e-17
      244000.  2.78511e-17
      245000.  2.74003e-17
      246000.  2.69625e-17
      247000.  2.65304e-17
      248000.  2.61031e-17
      249000.  2.56865e-17
      250000.  2.52803e-17
      251000.  2.48826e-17
      252000.  2.44901e-17
      253000.  2.41076e-17
      254000.  2.37305e-17
      255000.  2.33617e-17
      256000.  2.29996e-17
      257000.  2.26446e-17
      258000.  2.22969e-17
      259000.  2.19542e-17
      260000.  2.16214e-17
      261000.  2.12942e-17
      262000.  2.09683e-17
      263000.  2.06537e-17
      264000.  2.03450e-17
      265000.  2.00387e-17
      266000.  1.97406e-17
      267000.  1.94463e-17
      268000.  1.91589e-17
      269000.  1.88768e-17
      270000.  1.86003e-17
      271000.  1.83258e-17
      272000.  1.80593e-17
      273000.  1.77964e-17
      274000.  1.75386e-17
      275000.  1.72850e-17
      276000.  1.70366e-17
      277000.  1.67928e-17
      278000.  1.65186e-17
      279000.  1.63190e-17
      280000.  1.60902e-17
      281000.  1.58622e-17
      282000.  1.56351e-17
      283000.  1.54159e-17
      284000.  1.51995e-17
      285000.  1.49870e-17
      286000.  1.47808e-17
      287000.  1.45759e-17
      288000.  1.43730e-17
      289000.  1.41756e-17
      290000.  1.39824e-17
      291000.  1.37922e-17
      292000.  1.36041e-17
      293000.  1.34199e-17
      294000.  1.32386e-17
      295000.  1.30596e-17
      296000.  1.28845e-17
      297000.  1.27126e-17
      298000.  1.25379e-17
      299000.  1.23725e-17
      300000.  1.22124e-17
      301000.  1.20519e-17
      302000.  1.18919e-17
      303000.  1.17376e-17
      304000.  1.15836e-17
      305000.  1.14325e-17
      306000.  1.12827e-17
      307000.  1.11370e-17
      308000.  1.09936e-17
      309000.  1.08554e-17
      310000.  1.07156e-17
      311000.  1.05762e-17
      312000.  1.04415e-17
      313000.  1.03086e-17
      314000.  1.01781e-17
      315000.  1.00494e-17
      316000.  9.92301e-18
      317000.  9.79875e-18
      318000.  9.67608e-18
      319000.  9.55528e-18
      320000.  9.43659e-18
      321000.  9.31978e-18
      322000.  9.20415e-18
      323000.  9.09115e-18
      324000.  8.97958e-18
      325000.  8.86967e-18
      326000.  8.76152e-18
      327000.  8.65472e-18
      328000.  8.54999e-18
      329000.  8.44635e-18
      330000.  8.34464e-18
      331000.  8.24414e-18
      332000.  8.14543e-18
      333000.  8.04780e-18
      334000.  7.95252e-18
      335000.  7.85764e-18
      336000.  7.76475e-18
      337000.  7.67292e-18
      338000.  7.58255e-18
      339000.  7.49378e-18
      340000.  7.40584e-18
      341000.  7.31944e-18
      342000.  7.23416e-18
      343000.  7.15026e-18
      344000.  7.06756e-18
      345000.  6.98590e-18
      346000.  6.90544e-18
      347000.  6.82632e-18
      348000.  6.74828e-18
      349000.  6.67144e-18
      350000.  6.59533e-18
      351000.  6.52037e-18
      352000.  6.44682e-18
      353000.  6.37416e-18
      354000.  6.30208e-18
      355000.  6.23132e-18
      356000.  6.16165e-18
      357000.  6.09290e-18
      358000.  6.02511e-18
      359000.  5.95824e-18
      360000.  5.89178e-18
      361000.  5.82698e-18
      362000.  5.76301e-18
      363000.  5.69961e-18
      364000.  5.63685e-18
      365000.  5.57494e-18
      366000.  5.51480e-18
      367000.  5.45499e-18
      368000.  5.39598e-18
      369000.  5.33786e-18
      370000.  5.28029e-18
      371000.  5.22294e-18
      372000.  5.16715e-18
      373000.  5.11213e-18
      374000.  5.05753e-18
      375000.  5.00373e-18
      376000.  4.95088e-18
      377000.  4.89851e-18
      378000.  4.84657e-18
      379000.  4.79580e-18
      380000.  4.74520e-18
      381000.  4.69578e-18
      382000.  4.64676e-18
      383000.  4.59820e-18
      384000.  4.55055e-18
      385000.  4.50340e-18
      386000.  4.45672e-18
      387000.  4.41093e-18
      388000.  4.36286e-18
      389000.  4.31356e-18
      390000.  4.27680e-18
      391000.  4.23308e-18
      392000.  4.18963e-18
      393000.  4.14721e-18
      394000.  4.10534e-18
      395000.  4.06394e-18
      396000.  4.02276e-18
      397000.  3.98244e-18
      398000.  3.94251e-18
      399000.  3.90312e-18
      400000.  3.86419e-18
